#                                                           
#  ____  ____     _       ____    ____  ______      ___     
# |_  _||_  _|   / \     |_   \  /   _||_   _ \   ."   `.   
#   \ \  / /    / _ \      |   \/   |    | |_) | /  .-.  \  
#    \ \/ /    / ___ \     | |\  /| |    |  __". | |   | |  
#    _|  |_  _/ /   \ \_  _| |_\/_| |_  _| |__) |\  `-"  /  
#   |______||____| |____||_____||_____||_______/  `.___."   
#                                                           
#                                                           
#                                                           
# GPL Version 4.4.0 Revision 148. (Based on r.16920 h.961a8d
#                   MPI+SLK+OpenMP Build                    
#                http://www.yambo-code.org                  
#
# Absorption @ Q(1) [q->0 direction] :0.1000E-4  0.000     0.000   
#
#
# - Energies      are  Analyt. E
# - Wavefunctions are +AMGB (for 2D systems)(C)
#
# - The Green`s function is Retarded -
# - Using the Length Gauge -
# - [r,Vnl] *is* included -
#
#
#    E/ev[1]      EPS-Im[2]    EPS-Re[3]    EPSo-Im[4]   EPSo-Re[5]
#
    0.000000     0.000000     4.400167     0.000000     1.692111
   0.1001E-1    0.6151E-2     4.400       0.5088E-4     1.692   
   0.2002E-1    0.1231E-1     4.401       0.1018E-3     1.692   
   0.3003E-1    0.1848E-1     4.403       0.1527E-3     1.692   
   0.4004E-1    0.2467E-1     4.405       0.2035E-3     1.692   
   0.5005E-1    0.3089E-1     4.408       0.2545E-3     1.692   
   0.6006E-1    0.3714E-1     4.411       0.3054E-3     1.692   
   0.7007E-1    0.4343E-1     4.415       0.3563E-3     1.692   
   0.8008E-1    0.4977E-1     4.419       0.4072E-3     1.692   
   0.9009E-1    0.5616E-1     4.424       0.4582E-3     1.692   
   0.1001       0.6262E-1     4.430       0.5092E-3     1.692   
   0.1101       0.6914E-1     4.436       0.5602E-3     1.692   
   0.1201       0.7574E-1     4.443       0.6112E-3     1.692   
   0.1301       0.8242E-1     4.451       0.6623E-3     1.693   
   0.1401       0.8920E-1     4.459       0.7134E-3     1.693   
   0.1502       0.9608E-1     4.468       0.7645E-3     1.693   
   0.1602       0.1031        4.478       0.8157E-3     1.693   
   0.1702       0.1102        4.488       0.8668E-3     1.693   
   0.1802       0.1174        4.499       0.9181E-3     1.693   
   0.1902       0.1248        4.511       0.9694E-3     1.693   
   0.2002       0.1323        4.523       0.1021E-2     1.693   
   0.2102       0.1400        4.536       0.1072E-2     1.693   
   0.2202       0.1478        4.550       0.1123E-2     1.693   
   0.2302       0.1558        4.564       0.1175E-2     1.693   
   0.2402       0.1641        4.580       0.1226E-2     1.694   
   0.2503       0.1725        4.596       0.1278E-2     1.694   
   0.2603       0.1811        4.613       0.1330E-2     1.694   
   0.2703       0.1900        4.631       0.1381E-2     1.694   
   0.2803       0.1991        4.649       0.1433E-2     1.694   
   0.2903       0.2085        4.669       0.1485E-2     1.694   
   0.3003       0.2182        4.689       0.1537E-2     1.694   
   0.3103       0.2281        4.710       0.1589E-2     1.695   
   0.3203       0.2384        4.732       0.1641E-2     1.695   
   0.3303       0.2490        4.756       0.1693E-2     1.695   
   0.3403       0.2600        4.780       0.1745E-2     1.695   
   0.3504       0.2713        4.805       0.1797E-2     1.695   
   0.3604       0.2831        4.831       0.1850E-2     1.695   
   0.3704       0.2953        4.859       0.1902E-2     1.696   
   0.3804       0.3079        4.887       0.1955E-2     1.696   
   0.3904       0.3210        4.917       0.2007E-2     1.696   
   0.4004       0.3347        4.948       0.2060E-2     1.696   
   0.4104       0.3489        4.980       0.2113E-2     1.696   
   0.4204       0.3636        5.014       0.2166E-2     1.697   
   0.4304       0.3791        5.049       0.2219E-2     1.697   
   0.4404       0.3951        5.085       0.2272E-2     1.697   
   0.4505       0.4119        5.123       0.2325E-2     1.697   
   0.4605       0.4295        5.162       0.2378E-2     1.698   
   0.4705       0.4479        5.203       0.2432E-2     1.698   
   0.4805       0.4671        5.246       0.2485E-2     1.698   
   0.4905       0.4873        5.290       0.2539E-2     1.698   
   0.5005       0.5085        5.337       0.2592E-2     1.699   
   0.5105       0.5308        5.385       0.2646E-2     1.699   
   0.5205       0.5542        5.435       0.2700E-2     1.699   
   0.5305       0.5789        5.487       0.2754E-2     1.699   
   0.5405       0.6049        5.541       0.2809E-2     1.700   
   0.5506       0.6324        5.598       0.2863E-2     1.700   
   0.5606       0.6614        5.657       0.2918E-2     1.700   
   0.5706       0.6922        5.719       0.2972E-2     1.700   
   0.5806       0.7247        5.783       0.3027E-2     1.701   
   0.5906       0.7592        5.850       0.3082E-2     1.701   
   0.6006       0.7959        5.920       0.3137E-2     1.701   
   0.6106       0.8349        5.993       0.3192E-2     1.702   
   0.6206       0.8765        6.069       0.3248E-2     1.702   
   0.6306       0.9208        6.148       0.3303E-2     1.702   
   0.6406       0.9681        6.231       0.3359E-2     1.703   
   0.6507        1.019        6.318       0.3415E-2     1.703   
   0.6607        1.073        6.409       0.3471E-2     1.703   
   0.6707        1.131        6.504       0.3527E-2     1.704   
   0.6807        1.194        6.604       0.3583E-2     1.704   
   0.6907        1.261        6.708       0.3640E-2     1.704   
   0.7007        1.334        6.817       0.3696E-2     1.705   
   0.7107        1.412        6.932       0.3753E-2     1.705   
   0.7207        1.497        7.052       0.3810E-2     1.706   
   0.7307        1.590        7.177       0.3867E-2     1.706   
   0.7407        1.690        7.309       0.3925E-2     1.706   
   0.7508        1.799        7.447       0.3982E-2     1.707   
   0.7608        1.918        7.592       0.4040E-2     1.707   
   0.7708        2.049        7.744       0.4098E-2     1.708   
   0.7808        2.192        7.903       0.4156E-2     1.708   
   0.7908        2.349        8.069       0.4215E-2     1.708   
   0.8008        2.522        8.243       0.4273E-2     1.709   
   0.8108        2.713        8.425       0.4332E-2     1.709   
   0.8208        2.925        8.615       0.4391E-2     1.710   
   0.8308        3.160        8.811       0.4450E-2     1.710   
   0.8408        3.422        9.015       0.4510E-2     1.711   
   0.8509        3.713        9.225       0.4569E-2     1.711   
   0.8609        4.039        9.439       0.4629E-2     1.711   
   0.8709        4.405        9.657       0.4689E-2     1.712   
   0.8809        4.815        9.874       0.4750E-2     1.712   
   0.8909        5.275        10.09       0.4810E-2     1.713   
   0.9009        5.794        10.29       0.4871E-2     1.713   
   0.9109        6.377        10.48       0.4932E-2     1.714   
   0.9209        7.033        10.63       0.4993E-2     1.714   
   0.9309        7.767        10.75       0.5055E-2     1.715   
   0.9409        8.588        10.81       0.5117E-2     1.715   
   0.9510        9.496        10.78       0.5179E-2     1.716   
   0.9610        10.49        10.65       0.5241E-2     1.716   
   0.9710        11.57        10.37       0.5303E-2     1.717   
   0.9810        12.70        9.920       0.5366E-2     1.717   
   0.9910        13.85        9.252       0.5429E-2     1.718   
    1.001        14.98        8.340       0.5493E-2     1.719   
    1.011        16.01        7.171       0.5556E-2     1.719   
    1.021        16.86        5.755       0.5620E-2     1.720   
    1.031        17.46        4.136       0.5684E-2     1.720   
    1.041        17.73        2.389       0.5749E-2     1.721   
    1.051        17.66       0.6112       0.5814E-2     1.721   
    1.061        17.24       -1.093       0.5879E-2     1.722   
    1.071        16.53       -2.633       0.5944E-2     1.723   
    1.081        15.59       -3.947       0.6010E-2     1.723   
    1.091        14.51       -5.006       0.6076E-2     1.724   
    1.101        13.37       -5.812       0.6142E-2     1.724   
    1.111        12.22       -6.385       0.6209E-2     1.725   
    1.121        11.11       -6.759       0.6276E-2     1.726   
    1.131        10.07       -6.969       0.6343E-2     1.726   
    1.141        9.108       -7.052       0.6411E-2     1.727   
    1.151        8.238       -7.038       0.6479E-2     1.727   
    1.161        7.455       -6.952       0.6547E-2     1.728   
    1.171        6.756       -6.815       0.6616E-2     1.729   
      1.1812       6.1324      -6.6421       0.0067       1.7295
      1.1912       5.5784      -6.4466       0.0068       1.7301
      1.2012       5.0861      -6.2372       0.0068       1.7308
      1.2112       4.6484      -6.0205       0.0069       1.7315
      1.2212       4.2589      -5.8015       0.0070       1.7322
      1.2312       3.9116      -5.5837       0.0070       1.7329
      1.2412       3.6015      -5.3695       0.0071       1.7336
      1.2513       3.3239      -5.1605       0.0072       1.7343
      1.2613       3.0749      -4.9580       0.0072       1.7350
      1.2713       2.8509      -4.7625       0.0073       1.7358
      1.2813       2.6490      -4.5745       0.0074       1.7365
      1.2913       2.4666      -4.3940       0.0075       1.7372
      1.3013       2.3013      -4.2211       0.0075       1.7380
      1.3113       2.1512      -4.0557       0.0076       1.7387
      1.3213       2.0146      -3.8976       0.0077       1.7395
      1.3313       1.8899      -3.7465       0.0078       1.7403
      1.3413       1.7760      -3.6022       0.0078       1.7411
      1.3514       1.6716      -3.4643       0.0079       1.7418
      1.3614       1.5758      -3.3326       0.0080       1.7426
      1.3714       1.4876      -3.2068       0.0081       1.7434
      1.3814       1.4063      -3.0865       0.0081       1.7443
      1.3914       1.3313      -2.9715       0.0082       1.7451
      1.4014       1.2618      -2.8615       0.0083       1.7459
      1.4114       1.1975      -2.7563       0.0084       1.7467
      1.4214       1.1378      -2.6556       0.0085       1.7476
      1.4314       1.0823      -2.5590       0.0085       1.7484
      1.4414       1.0306      -2.4666       0.0086       1.7493
      1.4515       0.9823      -2.3779       0.0087       1.7501
      1.4615       0.9373      -2.2928       0.0088       1.7510
      1.4715       0.8952      -2.2111       0.0089       1.7519
      1.4815       0.8558      -2.1326       0.0089       1.7528
      1.4915       0.8188      -2.0572       0.0090       1.7537
      1.5015       0.7841      -1.9848       0.0091       1.7546
      1.5115       0.7515      -1.9150       0.0092       1.7555
      1.5215       0.7208      -1.8479       0.0093       1.7564
      1.5315       0.6919      -1.7832       0.0094       1.7574
      1.5415       0.6646      -1.7209       0.0094       1.7583
      1.5516       0.6389      -1.6608       0.0095       1.7592
      1.5616       0.6146      -1.6029       0.0096       1.7602
      1.5716       0.5915      -1.5470       0.0097       1.7612
      1.5816       0.5698      -1.4930       0.0098       1.7621
      1.5916       0.5491      -1.4408       0.0099       1.7631
      1.6016       0.5295      -1.3904       0.0100       1.7641
     1.61161      0.51095     -1.34167      0.01006      1.76511
     1.62162      0.49330     -1.29453      0.01015      1.76612
     1.63163      0.47651     -1.24891      0.01024      1.76714
     1.64164      0.46053     -1.20474      0.01033      1.76817
     1.65165      0.44532     -1.16195      0.01042      1.76920
     1.66166      0.43082     -1.12050      0.01051      1.77025
     1.67167      0.41700     -1.08032      0.01060      1.77130
     1.68168      0.40380     -1.04135      0.01070      1.77237
     1.69169      0.39120     -1.00355      0.01079      1.77344
     1.70170      0.37917     -0.96686      0.01089      1.77452
     1.71171      0.36765     -0.93125      0.01098      1.77561
     1.72172      0.35664     -0.89666      0.01108      1.77672
     1.73173      0.34610     -0.86306      0.01118      1.77783
     1.74174      0.33600     -0.83040      0.01127      1.77895
     1.75175      0.32632     -0.79865      0.01137      1.78008
     1.76176      0.31704     -0.76778      0.01147      1.78122
     1.77177      0.30813     -0.73774      0.01157      1.78237
     1.78178      0.29958     -0.70851      0.01167      1.78353
     1.79179      0.29137     -0.68006      0.01177      1.78470
     1.80180      0.28348     -0.65236      0.01188      1.78588
     1.81181      0.27590     -0.62538      0.01198      1.78707
     1.82182      0.26860     -0.59909      0.01208      1.78828
     1.83183      0.26158     -0.57347      0.01219      1.78949
     1.84184      0.25483     -0.54849      0.01229      1.79071
     1.85185      0.24832     -0.52414      0.01240      1.79194
     1.86186      0.24205     -0.50038      0.01251      1.79319
     1.87187      0.23600     -0.47721      0.01261      1.79444
     1.88188      0.23017     -0.45460      0.01272      1.79571
     1.89189      0.22455     -0.43252      0.01283      1.79698
     1.90190      0.21912     -0.41097      0.01294      1.79827
     1.91191      0.21388     -0.38992      0.01306      1.79957
     1.92192      0.20882     -0.36936      0.01317      1.80088
     1.93193      0.20393     -0.34927      0.01328      1.80220
     1.94194      0.19921     -0.32964      0.01340      1.80353
     1.95195      0.19464     -0.31045      0.01351      1.80487
     1.96196      0.19023     -0.29168      0.01363      1.80623
     1.97197      0.18595     -0.27333      0.01374      1.80760
     1.98198      0.18182     -0.25538      0.01386      1.80897
     1.99199      0.17781     -0.23782      0.01398      1.81036
     2.00200      0.17394     -0.22064      0.01410      1.81177
     2.01201      0.17019     -0.20382      0.01422      1.81318
     2.02202      0.16655     -0.18736      0.01434      1.81461
     2.03203      0.16302     -0.17124      0.01447      1.81605
     2.04204      0.15961     -0.15545      0.01459      1.81750
     2.05205      0.15630     -0.13998      0.01472      1.81896
     2.06206      0.15309     -0.12483      0.01484      1.82044
     2.07207      0.14997     -0.10999      0.01497      1.82192
     2.08208      0.14695     -0.09544      0.01510      1.82343
     2.09209      0.14401     -0.08118      0.01523      1.82494
     2.10210      0.14117     -0.06719      0.01536      1.82647
     2.11211      0.13840     -0.05348      0.01549      1.82801
     2.12212      0.13572     -0.04004      0.01563      1.82956
     2.13213      0.13311     -0.02685      0.01576      1.83113
     2.14214      0.13058     -0.01391      0.01590      1.83271
    2.152       0.1281       -.1221E-2    0.1603E-1     1.834   
     2.16216      0.12573      0.01123      0.01617      1.83591
     2.17217      0.12341      0.02345      0.01631      1.83753
     2.18218      0.12114      0.03545      0.01645      1.83917
     2.19219      0.11894      0.04722      0.01660      1.84082
     2.20220      0.11679      0.05879      0.01674      1.84248
     2.21221      0.11469      0.07014      0.01688      1.84416
     2.22222      0.11265      0.08130      0.01703      1.84585
     2.23223      0.11066      0.09226      0.01718      1.84756
     2.24224      0.10872      0.10304      0.01733      1.84928
     2.25225      0.10683      0.11363      0.01748      1.85102
     2.26226      0.10498      0.12404      0.01763      1.85277
     2.27227      0.10318      0.13428      0.01778      1.85454
     2.28228      0.10143      0.14436      0.01794      1.85632
     2.29229      0.09973      0.15426      0.01809      1.85812
     2.30230      0.09807      0.16401      0.01825      1.85993
     2.31231      0.09645      0.17359      0.01841      1.86176
     2.32232      0.09487      0.18302      0.01857      1.86361
     2.33233      0.09333      0.19231      0.01874      1.86547
     2.34234      0.09184      0.20144      0.01890      1.86735
     2.35235      0.09038      0.21043      0.01907      1.86924
     2.36236      0.08895      0.21929      0.01923      1.87115
     2.37237      0.08757      0.22800      0.01940      1.87308
     2.38238      0.08622      0.23658      0.01957      1.87503
     2.39239      0.08490      0.24503      0.01975      1.87699
     2.40240      0.08361      0.25336      0.01992      1.87897
     2.41241      0.08236      0.26156      0.02010      1.88097
     2.42242      0.08114      0.26964      0.02028      1.88298
     2.43243      0.07995      0.27760      0.02046      1.88501
     2.44244      0.07879      0.28545      0.02064      1.88706
     2.45245      0.07765      0.29318      0.02082      1.88913
     2.46246      0.07655      0.30080      0.02101      1.89122
     2.47247      0.07547      0.30832      0.02120      1.89332
     2.48248      0.07442      0.31573      0.02139      1.89545
     2.49249      0.07339      0.32305      0.02158      1.89759
     2.50250      0.07240      0.33026      0.02177      1.89976
     2.51251      0.07142      0.33737      0.02197      1.90194
     2.52252      0.07047      0.34439      0.02217      1.90414
     2.53253      0.06955      0.35132      0.02237      1.90636
     2.54254      0.06864      0.35816      0.02257      1.90860
     2.55255      0.06777      0.36491      0.02278      1.91086
     2.56256      0.06691      0.37157      0.02298      1.91315
     2.57257      0.06608      0.37815      0.02319      1.91545
     2.58258      0.06526      0.38465      0.02340      1.91777
     2.59259      0.06447      0.39107      0.02362      1.92012
     2.60260      0.06371      0.39742      0.02384      1.92249
     2.61261      0.06296      0.40369      0.02405      1.92488
     2.62262      0.06223      0.40988      0.02428      1.92729
     2.63263      0.06153      0.41601      0.02450      1.92972
     2.64264      0.06084      0.42206      0.02473      1.93217
     2.65265      0.06017      0.42805      0.02496      1.93465
     2.66266      0.05953      0.43398      0.02519      1.93715
     2.67267      0.05890      0.43984      0.02543      1.93968
     2.68268      0.05830      0.44564      0.02566      1.94222
     2.69269      0.05771      0.45138      0.02590      1.94480
     2.70270      0.05715      0.45706      0.02615      1.94739
     2.71271      0.05660      0.46268      0.02639      1.95001
     2.72272      0.05608      0.46825      0.02664      1.95266
     2.73273      0.05557      0.47377      0.02690      1.95532
     2.74274      0.05508      0.47924      0.02715      1.95802
     2.75275      0.05462      0.48467      0.02741      1.96074
     2.76276      0.05418      0.49004      0.02767      1.96349
     2.77277      0.05375      0.49537      0.02794      1.96626
     2.78278      0.05335      0.50066      0.02821      1.96906
     2.79279      0.05297      0.50590      0.02848      1.97188
     2.80280      0.05261      0.51111      0.02875      1.97474
     2.81281      0.05227      0.51628      0.02903      1.97762
     2.82282      0.05196      0.52142      0.02931      1.98052
     2.83283      0.05167      0.52652      0.02960      1.98346
     2.84284      0.05140      0.53160      0.02989      1.98643
     2.85285      0.05117      0.53664      0.03018      1.98942
     2.86286      0.05095      0.54166      0.03048      1.99244
     2.87287      0.05077      0.54665      0.03078      1.99550
     2.88288      0.05061      0.55163      0.03108      1.99858
     2.89289      0.05048      0.55658      0.03139      2.00169
     2.90290      0.05039      0.56152      0.03171      2.00484
     2.91291      0.05032      0.56644      0.03202      2.00801
     2.92292      0.05030      0.57135      0.03234      2.01122
     2.93293      0.05030      0.57625      0.03267      2.01446
     2.94294      0.05035      0.58114      0.03300      2.01773
     2.95295      0.05044      0.58603      0.03334      2.02104
     2.96296      0.05058      0.59092      0.03367      2.02437
     2.97297      0.05076      0.59582      0.03402      2.02775
     2.98298      0.05100      0.60072      0.03437      2.03115
     2.99299      0.05129      0.60563      0.03472      2.03459
     3.00300      0.05164      0.61055      0.03508      2.03807
     3.01301      0.05206      0.61549      0.03544      2.04158
     3.02302      0.05255      0.62045      0.03581      2.04513
     3.03303      0.05311      0.62544      0.03618      2.04872
     3.04304      0.05376      0.63046      0.03656      2.05234
     3.05305      0.05451      0.63551      0.03695      2.05600
     3.06306      0.05536      0.64059      0.03734      2.05970
     3.07307      0.05632      0.64572      0.03773      2.06344
     3.08308      0.05741      0.65090      0.03813      2.06722
     3.09309      0.05865      0.65613      0.03854      2.07103
     3.10310      0.06004      0.66142      0.03895      2.07489
     3.11311      0.06160      0.66676      0.03937      2.07879
     3.12312      0.06337      0.67217      0.03980      2.08273
     3.13313      0.06535      0.67764      0.04023      2.08672
     3.14314      0.06759      0.68318      0.04067      2.09074
     3.15315      0.07011      0.68878      0.04111      2.09481
     3.16316      0.07295      0.69445      0.04157      2.09893
     3.17317      0.07616      0.70017      0.04203      2.10309
     3.18318      0.07978      0.70593      0.04249      2.10730
     3.19319      0.08388      0.71171      0.04296      2.11155
     3.20320      0.08851      0.71749      0.04345      2.11585
     3.21321      0.09376      0.72322      0.04393      2.12020
     3.22322      0.09970      0.72884      0.04443      2.12459
     3.23323      0.10642      0.73427      0.04493      2.12904
     3.24324      0.11403      0.73940      0.04544      2.13354
     3.25325      0.12261      0.74409      0.04596      2.13808
     3.26326      0.13226      0.74813      0.04649      2.14268
     3.27327      0.14303      0.75128      0.04703      2.14733
     3.28328      0.15496      0.75321      0.04758      2.15204
     3.29329      0.16799      0.75355      0.04813      2.15680
     3.30330      0.18196      0.75185      0.04869      2.16161
     3.31331      0.19653      0.74764      0.04927      2.16648
     3.32332      0.21119      0.74048      0.04985      2.17141
     3.33333      0.22518      0.73004      0.05044      2.17640
     3.34334      0.23755      0.71625      0.05104      2.18144
     3.35335      0.24723      0.69940      0.05166      2.18655
     3.36336      0.25326      0.68020      0.05228      2.19172
     3.37337      0.25494      0.65977      0.05292      2.19694
     3.38338      0.25206      0.63942      0.05356      2.20224
     3.39339      0.24492      0.62048      0.05422      2.20759
     3.40340      0.23426      0.60398      0.05489      2.21301
     3.41341      0.22111      0.59058      0.05557      2.21850
     3.42342      0.20649      0.58049      0.05626      2.22406
     3.43343      0.19135      0.57359      0.05696      2.22968
     3.44344      0.17639      0.56953      0.05768      2.23538
     3.45345      0.16210      0.56786      0.05841      2.24114
     3.46346      0.14879      0.56811      0.05915      2.24698
     3.47347      0.13660      0.56984      0.05991      2.25289
     3.48348      0.12556      0.57268      0.06068      2.25888
     3.49349      0.11564      0.57633      0.06147      2.26495
     3.50350      0.10676      0.58053      0.06227      2.27109
     3.51351      0.09885      0.58511      0.06309      2.27731
     3.52352      0.09180      0.58992      0.06392      2.28361
     3.53353      0.08552      0.59486      0.06476      2.29000
     3.54354      0.07991      0.59985      0.06563      2.29647
     3.55355      0.07490      0.60483      0.06651      2.30303
     3.56356      0.07042      0.60977      0.06741      2.30967
     3.57357      0.06640      0.61463      0.06832      2.31640
     3.58358      0.06279      0.61940      0.06926      2.32323
     3.59359      0.05952      0.62408      0.07021      2.33014
     3.60360      0.05658      0.62864      0.07118      2.33716
     3.61361      0.05390      0.63309      0.07217      2.34426
     3.62362      0.05147      0.63742      0.07318      2.35147
     3.63363      0.04926      0.64164      0.07422      2.35878
     3.64364      0.04724      0.64576      0.07527      2.36618
     3.65365      0.04538      0.64976      0.07635      2.37370
     3.66366      0.04368      0.65366      0.07745      2.38132
     3.67367      0.04212      0.65746      0.07857      2.38905
     3.68368      0.04067      0.66116      0.07971      2.39689
     3.69369      0.03934      0.66478      0.08088      2.40484
     3.70370      0.03810      0.66830      0.08208      2.41291
     3.71371      0.03695      0.67174      0.08330      2.42110
     3.72372      0.03588      0.67510      0.08455      2.42941
     3.73373      0.03489      0.67839      0.08583      2.43784
     3.74374      0.03396      0.68160      0.08714      2.44640
     3.75375      0.03309      0.68475      0.08847      2.45509
     3.76376      0.03228      0.68783      0.08984      2.46391
     3.77377      0.03152      0.69085      0.09124      2.47286
     3.78378      0.03081      0.69380      0.09267      2.48196
     3.79379      0.03013      0.69671      0.09413      2.49119
     3.80380      0.02950      0.69956      0.09563      2.50057
     3.81381      0.02891      0.70235      0.09716      2.51010
     3.82382      0.02835      0.70510      0.09873      2.51978
     3.83383      0.02782      0.70781      0.10034      2.52961
     3.84384      0.02731      0.71046      0.10199      2.53960
     3.85385      0.02684      0.71308      0.10367      2.54976
     3.86386      0.02639      0.71566      0.10540      2.56008
     3.87387      0.02597      0.71820      0.10718      2.57057
     3.88388      0.02557      0.72070      0.10900      2.58123
     3.89389      0.02519      0.72317      0.11086      2.59208
     3.90390      0.02483      0.72560      0.11277      2.60311
     3.91391      0.02449      0.72801      0.11473      2.61432
     3.92392      0.02417      0.73038      0.11675      2.62573
     3.93393      0.02386      0.73272      0.11881      2.63734
     3.94394      0.02357      0.73504      0.12093      2.64915
     3.95395      0.02330      0.73733      0.12311      2.66117
     3.96396      0.02304      0.73960      0.12535      2.67340
     3.97397      0.02280      0.74184      0.12765      2.68585
     3.98398      0.02257      0.74405      0.13001      2.69853
     3.99399      0.02236      0.74625      0.13244      2.71144
     4.00400      0.02215      0.74843      0.13494      2.72458
     4.01401      0.02196      0.75058      0.13751      2.73797
     4.02402      0.02178      0.75272      0.14015      2.75161
     4.03403      0.02161      0.75483      0.14287      2.76551
     4.04404      0.02145      0.75694      0.14567      2.77968
     4.05405      0.02130      0.75902      0.14856      2.79412
     4.06406      0.02116      0.76110      0.15153      2.80884
     4.07407      0.02104      0.76316      0.15459      2.82384
     4.08408      0.02092      0.76521      0.15775      2.83915
     4.09409      0.02081      0.76725      0.16100      2.85476
     4.10410      0.02071      0.76928      0.16435      2.87069
     4.11411      0.02062      0.77131      0.16782      2.88695
     4.12412      0.02055      0.77332      0.17139      2.90354
     4.13413      0.02048      0.77533      0.17508      2.92048
     4.14414      0.02043      0.77734      0.17889      2.93777
     4.15415      0.02039      0.77934      0.18283      2.95544
     4.16416      0.02036      0.78133      0.18690      2.97348
     4.17417      0.02035      0.78333      0.19111      2.99192
     4.18418      0.02035      0.78532      0.19546      3.01076
     4.19419      0.02036      0.78731      0.19997      3.03002
     4.20420      0.02038      0.78930      0.20464      3.04972
     4.21421      0.02042      0.79129      0.20947      3.06986
     4.22422      0.02047      0.79329      0.21448      3.09047
     4.23423      0.02054      0.79528      0.21967      3.11156
     4.24424      0.02062      0.79729      0.22506      3.13314
     4.25425      0.02073      0.79930      0.23064      3.15524
     4.26426      0.02084      0.80131      0.23645      3.17786
     4.27427      0.02098      0.80334      0.24247      3.20105
     4.28428      0.02114      0.80538      0.24874      3.22480
     4.29429      0.02132      0.80743      0.25525      3.24915
     4.30430      0.02152      0.80949      0.26203      3.27411
     4.31431      0.02174      0.81157      0.26908      3.29972
     4.32432      0.02199      0.81366      0.27643      3.32598
     4.33433      0.02227      0.81577      0.28408      3.35294
     4.34434      0.02257      0.81791      0.29207      3.38062
     4.35435      0.02291      0.82007      0.30040      3.40904
     4.36436      0.02329      0.82225      0.30910      3.43824
     4.37437      0.02370      0.82446      0.31819      3.46825
     4.38438      0.02415      0.82670      0.32770      3.49910
     4.39439      0.02465      0.82897      0.33764      3.53083
     4.40440      0.02519      0.83128      0.34806      3.56348
     4.41441      0.02579      0.83362      0.35897      3.59708
     4.42442      0.02645      0.83601      0.37041      3.63169
     4.43443      0.02717      0.83844      0.38242      3.66733
     4.44444      0.02797      0.84091      0.39504      3.70406
     4.45445      0.02884      0.84344      0.40830      3.74193
     4.46446      0.02980      0.84602      0.42226      3.78100
     4.47447      0.03086      0.84866      0.43696      3.82131
     4.48448      0.03203      0.85135      0.45246      3.86293
     4.49449      0.03332      0.85411      0.46881      3.90591
     4.50450      0.03475      0.85694      0.48609      3.95034
     4.51451      0.03634      0.85983      0.50436      3.99627
     4.52452      0.03809      0.86280      0.52370      4.04378
     4.53453      0.04005      0.86583      0.54420      4.09295
     4.54454      0.04223      0.86894      0.56596      4.14387
     4.55455      0.04466      0.87211      0.58907      4.19662
     4.56456      0.04737      0.87534      0.61366      4.25131
     4.57457      0.05042      0.87862      0.63985      4.30802
     4.58458      0.05384      0.88193      0.66779      4.36688
     4.59459      0.05769      0.88526      0.69764      4.42798
     4.60460      0.06202      0.88857      0.72958      4.49146
     4.61461      0.06690      0.89181      0.76380      4.55743
     4.62462      0.07240      0.89492      0.80053      4.62604
     4.63463      0.07861      0.89781      0.84003      4.69741
     4.64464      0.08558      0.90036      0.88257      4.77169
     4.65465      0.09341      0.90243      0.92847      4.84903
    4.664664     0.102140     0.903807     0.978093     4.929597
    4.674675     0.111793     0.904245     1.031854     5.013535
    4.684684     0.122334     0.903438     1.090211     5.101000
    4.694695     0.133639     0.901032     1.153700     5.192151
    4.704704     0.145457     0.896649     1.222922     5.287130
    4.714715     0.157377     0.889929     1.298567     5.386067
    4.724724     0.168804     0.880605     1.381425     5.489063
    4.734735     0.178983     0.868598     1.472408     5.596192
    4.744744     0.187069     0.854116     1.572553     5.707465
    4.754755     0.192266     0.837709     1.683054     5.822817
    4.764764     0.193999     0.820246     1.805275     5.942068
    4.774775     0.192060     0.802787     1.940791     6.064901
    4.784785     0.186665     0.786393     2.091382     6.190778
    4.794795     0.178396     0.771926     2.259067     6.318880
    4.804804     0.168052     0.759930     2.446104     6.448005
    4.814815     0.156477     0.750603     2.655006     6.576455
    4.824825     0.144423     0.743864     2.888464     6.701851
    4.834835     0.132482     0.739442     3.149279     6.820956
    4.844844     0.121060     0.736977     3.440174     6.929429
    4.854855     0.110406     0.736089     3.763557     7.021605
    4.864865     0.100641     0.736427     4.120992     7.090237
     4.87487      0.09180      0.73769      4.51256      7.12639
     4.88488      0.08386      0.73961      4.93601      7.11956
     4.89489      0.07677      0.74202      5.38555      7.05819
     4.90490      0.07045      0.74474      5.85081      6.93087
     4.91491      0.06482      0.74766      6.31607      6.72839
     4.92492      0.05982      0.75070      6.76059      6.44650
     4.93493      0.05537      0.75379      7.16038      6.08893
     4.94494      0.05140      0.75689      7.49217      5.66949
     4.95495      0.04785      0.75996      7.73851      5.21189
     4.96496      0.04468      0.76299      7.89273      4.74638
     4.97497      0.04183      0.76595      7.96134      4.30401
     4.98498      0.03927      0.76883      7.96301      3.91021
     4.99499      0.03696      0.77164      7.92435      3.58015
     5.00500      0.03487      0.77436      7.87444      3.31707
     5.01501      0.03298      0.77700      7.84002      3.11338
     5.02502      0.03126      0.77956      7.84224      2.95316
     5.03503      0.02969      0.78203      7.89510      2.81494
     5.04504      0.02826      0.78442      8.00474      2.67415
     5.05505      0.02695      0.78674      8.16919      2.50507
     5.06506      0.02576      0.78898      8.37794      2.28286
     5.07507      0.02465      0.79115      8.61174      1.98596
     5.08508      0.02364      0.79326      8.84295      1.59934
     5.09509      0.02270      0.79530      9.03754      1.11838
     5.10510      0.02183      0.79728      9.15932      0.55208
     5.11511      0.02103      0.79920      9.17630     -0.07570
     5.12512      0.02028      0.80106      9.06769     -0.72896
     5.13514      0.01959      0.80287      8.82884     -1.36577
     5.14514      0.01894      0.80463      8.47206     -1.94662
     5.15515      0.01834      0.80635      8.02272     -2.44171
     5.16516      0.01778      0.80802      7.51275     -2.83450
     5.17518      0.01725      0.80964      6.97402     -3.12149
     5.18518      0.01676      0.81123      6.43369     -3.30913
     5.19519      0.01630      0.81277      5.91198     -3.40995
     5.20520      0.01586      0.81428      5.42220     -3.43889
     5.21522      0.01545      0.81576      4.97181     -3.41086
     5.22522      0.01507      0.81720      4.56386     -3.33929
     5.23523      0.01470      0.81861      4.19837     -3.23554
     5.24524      0.01436      0.81999      3.87363     -3.10875
     5.25526      0.01404      0.82134      3.58691     -2.96610
     5.26526      0.01373      0.82266      3.33508     -2.81304
     5.27527      0.01344      0.82396      3.11494     -2.65366
     5.28528      0.01316      0.82523      2.92350     -2.49095
     5.29530      0.01290      0.82648      2.75800     -2.32707
     5.30531      0.01265      0.82771      2.61608     -2.16359
     5.31531      0.01242      0.82892      2.49566     -2.00158
     5.32533      0.01219      0.83010      2.39508     -1.84181
     5.33534      0.01198      0.83127      2.31299     -1.68482
     5.34535      0.01178      0.83242      2.24835     -1.53104
     5.35536      0.01159      0.83355      2.20046     -1.38081
     5.36537      0.01141      0.83467      2.16888     -1.23450
     5.37538      0.01124      0.83577      2.15346     -1.09259
     5.38539      0.01108      0.83686      2.15429     -0.95568
     5.39540      0.01093      0.83793      2.17169     -0.82462
     5.40541      0.01079      0.83898      2.20616     -0.70061
     5.41541      0.01066      0.84003      2.25831     -0.58529
     5.42543      0.01054      0.84106      2.32877     -0.48088
     5.43544      0.01042      0.84207      2.41798     -0.39030
     5.44545      0.01031      0.84308      2.52596     -0.31729
     5.45545      0.01021      0.84408      2.65192     -0.26649
     5.46547      0.01012      0.84507      2.79376     -0.24331
     5.47548      0.01004      0.84604      2.94751     -0.25368
      5.4855       0.0100       0.8470       3.1067      -0.3033
      5.4955       0.0099       0.8480       3.2619      -0.3968
      5.5055       0.0099       0.8489       3.4011      -0.5356
      5.5155       0.0098       0.8499       3.5106      -0.7171
      5.5255       0.0098       0.8508       3.5773      -0.9331
      5.5355       0.0098       0.8517       3.5909      -1.1703
      5.5455       0.0097       0.8527       3.5472      -1.4116
      5.5556       0.0097       0.8536       3.4484      -1.6397
      5.5656       0.0098       0.8545       3.3031      -1.8401
      5.5756       0.0098       0.8554       3.1238      -2.0031
      5.5856       0.0098       0.8563       2.9239      -2.1246
      5.5956       0.0099       0.8572       2.7159      -2.2054
     5.60561      0.01000      0.85811      2.50949     -2.24927
     5.61562      0.01012      0.85900      2.31169     -2.26193
     5.62563      0.01026      0.85988      2.12673     -2.24939
     5.63564      0.01043      0.86074      1.95679     -2.21733
     5.64565      0.01063      0.86160      1.80255     -2.17071
     5.65566      0.01087      0.86244      1.66370     -2.11360
     5.66567      0.01116      0.86325      1.53939     -2.04927
     5.67568      0.01149      0.86403      1.42847     -1.98020
     5.68569      0.01186      0.86478      1.32968     -1.90829
     5.69570      0.01229      0.86547      1.24178     -1.83494
     5.70571      0.01276      0.86610      1.16357     -1.76116
     5.71572      0.01328      0.86664      1.09399     -1.68769
     5.72573      0.01383      0.86707      1.03207     -1.61502
     5.73574      0.01439      0.86739      0.97697     -1.54349
     5.74575      0.01493      0.86757      0.92794     -1.47331
     5.75576      0.01542      0.86760      0.88434     -1.40461
     5.76577      0.01581      0.86749      0.84564     -1.33744
     5.77578      0.01606      0.86728      0.81137     -1.27181
     5.78579      0.01614      0.86700      0.78114     -1.20770
     5.79580      0.01602      0.86670      0.75462     -1.14506
     5.80581      0.01573      0.86644      0.73156     -1.08382
     5.81582      0.01529      0.86627      0.71172     -1.02390
     5.82583      0.01473      0.86622      0.69496     -0.96524
     5.83584      0.01410      0.86630      0.68116     -0.90774
     5.84585      0.01344      0.86651      0.67024     -0.85133
     5.85586      0.01278      0.86684      0.66217     -0.79594
     5.86587      0.01215      0.86727      0.65697     -0.74150
     5.87588      0.01156      0.86779      0.65469     -0.68798
     5.88589      0.01101      0.86836      0.65542     -0.63535
     5.89590      0.01051      0.86899      0.65933     -0.58361
     5.90591      0.01006      0.86965      0.66659     -0.53281
      5.9159       0.0097       0.8703       0.6775      -0.4830
      5.9259       0.0093       0.8710       0.6922      -0.4345
      5.9359       0.0090       0.8717       0.7112      -0.3873
      5.9459       0.0087       0.8724       0.7349      -0.3420
      5.9560       0.0084       0.8731       0.7636      -0.2990
      5.9660       0.0082       0.8738       0.7978      -0.2590
      5.9760       0.0080       0.8746       0.8379      -0.2231
      5.9860       0.0078       0.8752       0.8842      -0.1923
      5.9960       0.0076       0.8759       0.9366      -0.1684
      6.0060       0.0075       0.8766       0.9950      -0.1531
      6.0160       0.0073       0.8773       1.0583      -0.1488
      6.0260       0.0072       0.8780       1.1250      -0.1577
      6.0360       0.0071       0.8787       1.1921      -0.1820
      6.0460       0.0070       0.8793       1.2560      -0.2231
      6.0561       0.0069       0.8800       1.3118      -0.2814
      6.0661       0.0068       0.8806       1.3541      -0.3552
      6.0761       0.0068       0.8813       1.3782      -0.4408
      6.0861       0.0067       0.8819       1.3807      -0.5326
      6.0961       0.0067       0.8826       1.3607      -0.6238
      6.1061       0.0066       0.8832       1.3199      -0.7080
      6.1161       0.0066       0.8838       1.2622      -0.7800
      6.1261       0.0065       0.8845       1.1925      -0.8368
      6.1361       0.0065       0.8851       1.1161      -0.8773
      6.1461       0.0065       0.8857       1.0375      -0.9024
      6.1562       0.0065       0.8863       0.9603      -0.9136
      6.1662       0.0065       0.8869       0.8867      -0.9134
      6.1762       0.0065       0.8876       0.8182      -0.9040
      6.1862       0.0065       0.8882       0.7555      -0.8875
      6.1962       0.0065       0.8888       0.6987      -0.8659
      6.2062       0.0065       0.8894       0.6476      -0.8405
      6.2162       0.0065       0.8900       0.6019      -0.8126
      6.2262       0.0065       0.8907       0.5611      -0.7830
      6.2362       0.0066       0.8913       0.5247      -0.7525
      6.2462       0.0066       0.8919       0.4923      -0.7215
      6.2563       0.0067       0.8925       0.4633      -0.6905
      6.2663       0.0068       0.8931       0.4375      -0.6595
      6.2763       0.0069       0.8938       0.4144      -0.6290
      6.2863       0.0070       0.8944       0.3938      -0.5988
      6.2963       0.0071       0.8950       0.3753      -0.5693
      6.3063       0.0072       0.8957       0.3587      -0.5403
      6.3163       0.0074       0.8963       0.3439      -0.5119
      6.3263       0.0076       0.8970       0.3306      -0.4841
      6.3363       0.0078       0.8976       0.3186      -0.4570
      6.3463       0.0080       0.8983       0.3080      -0.4304
      6.3564       0.0083       0.8989       0.2985      -0.4043
      6.3664       0.0086       0.8996       0.2900      -0.3788
      6.3764       0.0089       0.9002       0.2825      -0.3538
      6.3864       0.0093       0.9009       0.2760      -0.3293
      6.3964       0.0098       0.9015       0.2703      -0.3052
     6.40641      0.01028      0.90212      0.26547     -0.28150
     6.41642      0.01085      0.90271      0.26145     -0.25817
     6.42643      0.01150      0.90325      0.25822     -0.23518
     6.43644      0.01222      0.90374      0.25579     -0.21250
     6.44645      0.01303      0.90416      0.25416     -0.19009
     6.45646      0.01391      0.90446      0.25334     -0.16794
     6.46647      0.01487      0.90464      0.25338     -0.14602
     6.47648      0.01588      0.90465      0.25429     -0.12432
     6.48649      0.01691      0.90447      0.25616     -0.10281
     6.49650      0.01792      0.90406      0.25903     -0.08151
     6.50651      0.01883      0.90342      0.26300     -0.06042
     6.51652      0.01959      0.90255      0.26817     -0.03957
     6.52653      0.02011      0.90150      0.27466     -0.01899
    6.537       0.2034E-1    0.9003       0.2826       0.1234E-2
     6.54655      0.02025      0.89913      0.29219      0.02100
     6.55656      0.01986      0.89800      0.30357      0.04016
     6.56657      0.01919      0.89703      0.31693      0.05850
     6.57658      0.01833      0.89625      0.33248      0.07572
     6.58659      0.01734      0.89571      0.35040      0.09143
     6.59660      0.01630      0.89540      0.37083      0.10513
     6.60661      0.01525      0.89530      0.39383      0.11616
     6.61662      0.01424      0.89537      0.41930      0.12375
     6.62663      0.01330      0.89560      0.44694      0.12696
     6.63664      0.01243      0.89593      0.47610      0.12481
     6.64665      0.01164      0.89636      0.50571      0.11633
     6.65666      0.01094      0.89685      0.53424      0.10081
     6.66667      0.01032      0.89739      0.55970      0.07800
      6.6767       0.0098       0.8980       0.5799       0.0484
      6.6867       0.0093       0.8985       0.5926       0.0134
      6.6967       0.0088       0.8991       0.5962      -0.0248
      6.7067       0.0085       0.8998       0.5903      -0.0632
      6.7167       0.0081       0.9004       0.5751      -0.0992
      6.7267       0.0078       0.9010       0.5523      -0.1304
      6.7367       0.0076       0.9016       0.5238      -0.1552
      6.7467       0.0074       0.9022       0.4920      -0.1731
      6.7568       0.0072       0.9028       0.4589      -0.1842
      6.7668       0.0070       0.9034       0.4260      -0.1892
      6.7768       0.0069       0.9040       0.3945      -0.1890
      6.7868       0.0068       0.9046       0.3651      -0.1847
    6.797       0.6710E-2    0.9052       0.3380       -.1772   
    6.807       0.6649E-2    0.9057       0.3135       -.1673   
    6.817       0.6609E-2    0.9063       0.2914       -.1556   
    6.827       0.6592E-2    0.9069       0.2716       -.1428   
    6.837       0.6597E-2    0.9075       0.2539       -.1292   
    6.847       0.6624E-2    0.9080       0.2382       -.1150   
    6.857       0.6676E-2    0.9086       0.2241       -.1007   
    6.867       0.6753E-2    0.9091       0.2116       -.8622E-1
    6.877       0.6857E-2    0.9097       0.2004       -.7181E-1
      6.8869       0.0070       0.9102       0.1904      -0.0575
      6.8969       0.0072       0.9107       0.1815      -0.0434
      6.9069       0.0074       0.9113       0.1734      -0.0295
      6.9169       0.0076       0.9118       0.1662      -0.0159
    6.927       0.7876E-2    0.9123       0.1598       -.2453E-2
      6.9369       0.0082       0.9127       0.1540       0.0107
      6.9469       0.0086       0.9131       0.1488       0.0236
      6.9570       0.0090       0.9135       0.1441       0.0362
      6.9670       0.0095       0.9138       0.1399       0.0486
      6.9770       0.0100       0.9140       0.1361       0.0608
     6.98699      0.01050      0.91414      0.13273      0.07277
     6.99700      0.01103      0.91415      0.12974      0.08452
     7.00701      0.01154      0.91402      0.12711      0.09609
     7.01702      0.01200      0.91377      0.12481      0.10748
     7.02703      0.01235      0.91339      0.12282      0.11870
     7.03704      0.01256      0.91292      0.12114      0.12978
     7.04705      0.01260      0.91241      0.11976      0.14073
     7.05706      0.01247      0.91189      0.11867      0.15155
     7.06707      0.01218      0.91142      0.11788      0.16226
     7.07708      0.01176      0.91105      0.11739      0.17288
     7.08709      0.01124      0.91080      0.11721      0.18341
     7.09710      0.01066      0.91068      0.11735      0.19386
     7.10711      0.01007      0.91067      0.11783      0.20425
      7.1171       0.0095       0.9108       0.1187       0.2146
      7.1271       0.0089       0.9110       0.1199       0.2249
      7.1371       0.0084       0.9112       0.1215       0.2351
      7.1471       0.0079       0.9116       0.1236       0.2452
      7.1572       0.0075       0.9119       0.1263       0.2553
    7.167       0.7118E-2    0.9123       0.1294       0.2653   
    7.177       0.6777E-2    0.9128       0.1332       0.2752   
    7.187       0.6475E-2    0.9132       0.1377       0.2850   
    7.197       0.6208E-2    0.9136       0.1430       0.2945   
    7.207       0.5973E-2    0.9141       0.1492       0.3037   
    7.217       0.5767E-2    0.9145       0.1563       0.3126   
    7.227       0.5585E-2    0.9150       0.1645       0.3208   
    7.237       0.5427E-2    0.9155       0.1739       0.3282   
    7.247       0.5289E-2    0.9159       0.1844       0.3346   
    7.257       0.5169E-2    0.9163       0.1962       0.3396   
    7.267       0.5066E-2    0.9168       0.2090       0.3428   
    7.277       0.4979E-2    0.9172       0.2228       0.3437   
    7.287       0.4905E-2    0.9177       0.2372       0.3419   
    7.297       0.4846E-2    0.9181       0.2514       0.3369   
    7.307       0.4799E-2    0.9185       0.2648       0.3284   
    7.317       0.4764E-2    0.9190       0.2763       0.3165   
    7.327       0.4742E-2    0.9194       0.2848       0.3017   
    7.337       0.4731E-2    0.9198       0.2893       0.2846   
    7.347       0.4733E-2    0.9203       0.2893       0.2665   
    7.357       0.4746E-2    0.9207       0.2848       0.2489   
    7.367       0.4773E-2    0.9211       0.2761       0.2330   
    7.377       0.4813E-2    0.9215       0.2640       0.2197   
    7.387       0.4868E-2    0.9219       0.2497       0.2097   
    7.397       0.4939E-2    0.9224       0.2343       0.2030   
    7.407       0.5026E-2    0.9228       0.2185       0.1994   
    7.417       0.5133E-2    0.9232       0.2030       0.1986   
    7.427       0.5260E-2    0.9236       0.1884       0.2001   
    7.437       0.5410E-2    0.9240       0.1748       0.2034   
    7.447       0.5586E-2    0.9244       0.1624       0.2081   
    7.457       0.5791E-2    0.9248       0.1512       0.2138   
    7.467       0.6028E-2    0.9252       0.1412       0.2202   
    7.477       0.6299E-2    0.9256       0.1322       0.2271   
    7.487       0.6609E-2    0.9259       0.1242       0.2343   
    7.497       0.6958E-2    0.9262       0.1170       0.2417   
    7.508       0.7348E-2    0.9265       0.1106       0.2492   
      7.5175       0.0078       0.9267       0.1049       0.2567
      7.5275       0.0082       0.9268       0.0999       0.2642
      7.5375       0.0087       0.9269       0.0953       0.2716
      7.5475       0.0092       0.9269       0.0913       0.2789
      7.5576       0.0097       0.9267       0.0876       0.2862
     7.56757      0.01009      0.92641      0.08436      0.29326
     7.57758      0.01041      0.92603      0.08142      0.30025
     7.58759      0.01060      0.92557      0.07878      0.30712
     7.59760      0.01065      0.92506      0.07640      0.31387
     7.60761      0.01054      0.92456      0.07426      0.32050
     7.61762      0.01029      0.92410      0.07235      0.32702
      7.6276       0.0099       0.9237       0.0706       0.3334
      7.6376       0.0095       0.9235       0.0691       0.3398
      7.6476       0.0090       0.9233       0.0677       0.3460
      7.6577       0.0084       0.9233       0.0665       0.3521
      7.6677       0.0079       0.9233       0.0655       0.3582
    7.678       0.7435E-2    0.9234       0.6455E-1    0.3642   
    7.688       0.6978E-2    0.9236       0.6378E-1    0.3701   
    7.698       0.6560E-2    0.9239       0.6314E-1    0.3759   
    7.708       0.6183E-2    0.9242       0.6264E-1    0.3817   
    7.718       0.5844E-2    0.9245       0.6227E-1    0.3875   
    7.728       0.5543E-2    0.9248       0.6203E-1    0.3932   
    7.738       0.5274E-2    0.9251       0.6193E-1    0.3989   
    7.748       0.5036E-2    0.9255       0.6197E-1    0.4045   
    7.758       0.4826E-2    0.9259       0.6216E-1    0.4101   
    7.768       0.4639E-2    0.9262       0.6252E-1    0.4157   
    7.778       0.4474E-2    0.9266       0.6304E-1    0.4213   
    7.788       0.4327E-2    0.9269       0.6374E-1    0.4268   
    7.798       0.4198E-2    0.9273       0.6465E-1    0.4324   
    7.808       0.4083E-2    0.9276       0.6578E-1    0.4379   
    7.818       0.3982E-2    0.9280       0.6715E-1    0.4434   
    7.828       0.3894E-2    0.9283       0.6880E-1    0.4488   
    7.838       0.3815E-2    0.9287       0.7075E-1    0.4543   
    7.848       0.3747E-2    0.9290       0.7305E-1    0.4597   
    7.858       0.3688E-2    0.9294       0.7573E-1    0.4649   
    7.868       0.3637E-2    0.9297       0.7883E-1    0.4701   
    7.878       0.3594E-2    0.9300       0.8242E-1    0.4751   
    7.888       0.3559E-2    0.9304       0.8654E-1    0.4798   
    7.898       0.3530E-2    0.9307       0.9123E-1    0.4842   
    7.908       0.3508E-2    0.9310       0.9655E-1    0.4881   
    7.918       0.3493E-2    0.9313       0.1025       0.4914   
    7.928       0.3485E-2    0.9317       0.1091       0.4939   
    7.938       0.3483E-2    0.9320       0.1162       0.4953   
    7.948       0.3487E-2    0.9323       0.1237       0.4953   
    7.958       0.3499E-2    0.9326       0.1314       0.4939   
    7.968       0.3518E-2    0.9330       0.1388       0.4906   
    7.978       0.3544E-2    0.9333       0.1455       0.4856   
    7.988       0.3579E-2    0.9336       0.1509       0.4788   
    7.998       0.3622E-2    0.9339       0.1545       0.4706   
    8.008       0.3674E-2    0.9342       0.1559       0.4615   
    8.018       0.3737E-2    0.9346       0.1548       0.4523   
    8.028       0.3811E-2    0.9349       0.1513       0.4437   
    8.038       0.3898E-2    0.9352       0.1459       0.4362   
    8.048       0.4000E-2    0.9356       0.1389       0.4302   
    8.058       0.4117E-2    0.9359       0.1310       0.4261   
    8.068       0.4252E-2    0.9362       0.1228       0.4237   
    8.078       0.4407E-2    0.9365       0.1145       0.4228   
    8.088       0.4585E-2    0.9369       0.1066       0.4233   
    8.098       0.4788E-2    0.9372       0.9914E-1    0.4249   
    8.108       0.5020E-2    0.9375       0.9229E-1    0.4273   
    8.118       0.5284E-2    0.9378       0.8607E-1    0.4304   
    8.128       0.5583E-2    0.9381       0.8047E-1    0.4339   
    8.138       0.5919E-2    0.9383       0.7545E-1    0.4377   
    8.148       0.6295E-2    0.9385       0.7098E-1    0.4418   
    8.158       0.6709E-2    0.9387       0.6699E-1    0.4460   
    8.168       0.7158E-2    0.9388       0.6343E-1    0.4503   
    8.178       0.7634E-2    0.9388       0.6026E-1    0.4546   
    8.188       0.8123E-2    0.9387       0.5744E-1    0.4589   
      8.1982       0.0086       0.9386       0.0549       0.4631
      8.2082       0.0090       0.9383       0.0527       0.4674
      8.2182       0.0094       0.9379       0.0506       0.4716
      8.2282       0.0097       0.9374       0.0488       0.4757
      8.2382       0.0098       0.9369       0.0472       0.4798
      8.2482       0.0098       0.9363       0.0457       0.4838
      8.2583       0.0096       0.9358       0.0444       0.4877
      8.2683       0.0093       0.9353       0.0432       0.4916
      8.2783       0.0089       0.9349       0.0422       0.4954
      8.2883       0.0084       0.9347       0.0412       0.4992
    8.298       0.7910E-2    0.9345       0.4037E-1    0.5029   
    8.308       0.7404E-2    0.9344       0.3961E-1    0.5066   
    8.318       0.6914E-2    0.9345       0.3893E-1    0.5102   
    8.328       0.6453E-2    0.9346       0.3834E-1    0.5137   
    8.338       0.6029E-2    0.9347       0.3782E-1    0.5173   
    8.348       0.5643E-2    0.9349       0.3738E-1    0.5208   
    8.358       0.5295E-2    0.9352       0.3700E-1    0.5242   
    8.368       0.4985E-2    0.9354       0.3670E-1    0.5277   
    8.378       0.4708E-2    0.9357       0.3646E-1    0.5311   
    8.388       0.4463E-2    0.9360       0.3629E-1    0.5345   
    8.398       0.4245E-2    0.9363       0.3619E-1    0.5378   
    8.408       0.4052E-2    0.9366       0.3617E-1    0.5412   
    8.418       0.3881E-2    0.9369       0.3621E-1    0.5445   
    8.428       0.3729E-2    0.9372       0.3634E-1    0.5478   
    8.438       0.3595E-2    0.9375       0.3655E-1    0.5511   
    8.448       0.3475E-2    0.9378       0.3684E-1    0.5544   
    8.458       0.3369E-2    0.9380       0.3723E-1    0.5577   
    8.468       0.3274E-2    0.9383       0.3773E-1    0.5610   
    8.478       0.3191E-2    0.9386       0.3834E-1    0.5643   
    8.488       0.3117E-2    0.9389       0.3908E-1    0.5676   
    8.498       0.3051E-2    0.9392       0.3996E-1    0.5709   
    8.509       0.2994E-2    0.9394       0.4100E-1    0.5741   
    8.519       0.2943E-2    0.9397       0.4222E-1    0.5774   
    8.529       0.2900E-2    0.9400       0.4364E-1    0.5806   
    8.539       0.2862E-2    0.9402       0.4529E-1    0.5837   
    8.549       0.2830E-2    0.9405       0.4719E-1    0.5868   
    8.559       0.2804E-2    0.9408       0.4937E-1    0.5898   
    8.569       0.2783E-2    0.9410       0.5186E-1    0.5926   
    8.579       0.2768E-2    0.9413       0.5469E-1    0.5952   
    8.589       0.2757E-2    0.9415       0.5787E-1    0.5975   
    8.599       0.2751E-2    0.9418       0.6142E-1    0.5994   
    8.609       0.2751E-2    0.9421       0.6531E-1    0.6007   
    8.619       0.2756E-2    0.9423       0.6949E-1    0.6015   
    8.629       0.2766E-2    0.9426       0.7386E-1    0.6014   
    8.639       0.2781E-2    0.9428       0.7824E-1    0.6004   
    8.649       0.2803E-2    0.9431       0.8241E-1    0.5984   
    8.659       0.2831E-2    0.9433       0.8606E-1    0.5954   
    8.669       0.2865E-2    0.9436       0.8887E-1    0.5914   
    8.679       0.2908E-2    0.9438       0.9055E-1    0.5867   
    8.689       0.2958E-2    0.9441       0.9088E-1    0.5816   
    8.699       0.3017E-2    0.9444       0.8981E-1    0.5766   
    8.709       0.3086E-2    0.9446       0.8745E-1    0.5720   
    8.719       0.3167E-2    0.9449       0.8403E-1    0.5682   
    8.729       0.3260E-2    0.9451       0.7986E-1    0.5653   
    8.739       0.3367E-2    0.9454       0.7527E-1    0.5635   
    8.749       0.3489E-2    0.9457       0.7053E-1    0.5626   
    8.759       0.3630E-2    0.9459       0.6587E-1    0.5625   
    8.769       0.3791E-2    0.9462       0.6142E-1    0.5632   
    8.779       0.3975E-2    0.9464       0.5729E-1    0.5645   
    8.789       0.4184E-2    0.9467       0.5350E-1    0.5662   
    8.799       0.4421E-2    0.9469       0.5008E-1    0.5683   
    8.809       0.4688E-2    0.9471       0.4700E-1    0.5706   
    8.819       0.4986E-2    0.9473       0.4424E-1    0.5730   
    8.829       0.5316E-2    0.9474       0.4179E-1    0.5756   
    8.839       0.5676E-2    0.9475       0.3960E-1    0.5782   
    8.849       0.6060E-2    0.9475       0.3765E-1    0.5808   
    8.859       0.6457E-2    0.9475       0.3592E-1    0.5835   
    8.869       0.6852E-2    0.9474       0.3437E-1    0.5861   
    8.879       0.7222E-2    0.9472       0.3299E-1    0.5888   
    8.889       0.7541E-2    0.9468       0.3175E-1    0.5914   
    8.899       0.7778E-2    0.9465       0.3064E-1    0.5940   
    8.909       0.7910E-2    0.9460       0.2965E-1    0.5965   
    8.919       0.7920E-2    0.9456       0.2876E-1    0.5991   
    8.929       0.7807E-2    0.9451       0.2796E-1    0.6015   
    8.939       0.7583E-2    0.9447       0.2724E-1    0.6040   
    8.949       0.7270E-2    0.9444       0.2659E-1    0.6064   
    8.959       0.6897E-2    0.9441       0.2601E-1    0.6088   
    8.969       0.6491E-2    0.9440       0.2549E-1    0.6112   
    8.979       0.6078E-2    0.9439       0.2502E-1    0.6135   
    8.989       0.5674E-2    0.9439       0.2461E-1    0.6158   
    8.999       0.5292E-2    0.9440       0.2425E-1    0.6180   
    9.009       0.4938E-2    0.9441       0.2393E-1    0.6203   
    9.019       0.4616E-2    0.9442       0.2365E-1    0.6225   
    9.029       0.4325E-2    0.9444       0.2341E-1    0.6247   
    9.039       0.4064E-2    0.9446       0.2321E-1    0.6269   
    9.049       0.3832E-2    0.9448       0.2305E-1    0.6291   
    9.059       0.3626E-2    0.9451       0.2294E-1    0.6312   
    9.069       0.3443E-2    0.9453       0.2285E-1    0.6334   
    9.079       0.3280E-2    0.9455       0.2281E-1    0.6355   
    9.089       0.3136E-2    0.9457       0.2281E-1    0.6376   
    9.099       0.3008E-2    0.9460       0.2285E-1    0.6398   
    9.109       0.2895E-2    0.9462       0.2294E-1    0.6419   
    9.119       0.2794E-2    0.9464       0.2307E-1    0.6440   
    9.129       0.2704E-2    0.9467       0.2326E-1    0.6461   
    9.139       0.2624E-2    0.9469       0.2350E-1    0.6482   
    9.149       0.2553E-2    0.9471       0.2380E-1    0.6503   
    9.159       0.2490E-2    0.9473       0.2416E-1    0.6524   
    9.169       0.2433E-2    0.9476       0.2460E-1    0.6545   
    9.179       0.2384E-2    0.9478       0.2513E-1    0.6566   
    9.189       0.2340E-2    0.9480       0.2574E-1    0.6587   
    9.199       0.2301E-2    0.9482       0.2646E-1    0.6608   
    9.209       0.2268E-2    0.9484       0.2729E-1    0.6629   
    9.219       0.2239E-2    0.9486       0.2826E-1    0.6649   
    9.229       0.2214E-2    0.9488       0.2937E-1    0.6669   
    9.239       0.2194E-2    0.9490       0.3065E-1    0.6689   
    9.249       0.2177E-2    0.9492       0.3210E-1    0.6707   
    9.259       0.2165E-2    0.9495       0.3376E-1    0.6725   
    9.269       0.2156E-2    0.9497       0.3563E-1    0.6740   
    9.279       0.2151E-2    0.9499       0.3772E-1    0.6754   
    9.289       0.2149E-2    0.9501       0.4003E-1    0.6765   
    9.299       0.2152E-2    0.9503       0.4253E-1    0.6772   
    9.309       0.2158E-2    0.9505       0.4516E-1    0.6775   
    9.319       0.2169E-2    0.9507       0.4786E-1    0.6772   
    9.329       0.2183E-2    0.9509       0.5048E-1    0.6764   
    9.339       0.2203E-2    0.9511       0.5285E-1    0.6749   
    9.349       0.2227E-2    0.9513       0.5479E-1    0.6728   
    9.359       0.2257E-2    0.9515       0.5610E-1    0.6702   
    9.369       0.2293E-2    0.9517       0.5663E-1    0.6672   
    9.379       0.2335E-2    0.9519       0.5630E-1    0.6643   
    9.389       0.2384E-2    0.9521       0.5515E-1    0.6615   
    9.399       0.2442E-2    0.9523       0.5330E-1    0.6591   
    9.409       0.2508E-2    0.9525       0.5091E-1    0.6572   
    9.419       0.2584E-2    0.9527       0.4819E-1    0.6560   
    9.429       0.2672E-2    0.9529       0.4533E-1    0.6553   
    9.439       0.2773E-2    0.9531       0.4246E-1    0.6553   
    9.449       0.2888E-2    0.9533       0.3970E-1    0.6557   
    9.459       0.3019E-2    0.9535       0.3711E-1    0.6564   
    9.469       0.3169E-2    0.9537       0.3472E-1    0.6575   
    9.479       0.3339E-2    0.9539       0.3256E-1    0.6588   
    9.489       0.3531E-2    0.9540       0.3061E-1    0.6603   
    9.499       0.3747E-2    0.9542       0.2886E-1    0.6619   
    9.510       0.3989E-2    0.9543       0.2730E-1    0.6635   
    9.520       0.4256E-2    0.9544       0.2591E-1    0.6652   
    9.530       0.4545E-2    0.9545       0.2468E-1    0.6670   
    9.540       0.4852E-2    0.9545       0.2357E-1    0.6687   
    9.550       0.5168E-2    0.9545       0.2259E-1    0.6705   
    9.560       0.5479E-2    0.9544       0.2172E-1    0.6722   
    9.570       0.5766E-2    0.9542       0.2093E-1    0.6740   
    9.580       0.6008E-2    0.9539       0.2023E-1    0.6757   
    9.590       0.6182E-2    0.9536       0.1961E-1    0.6774   
    9.600       0.6269E-2    0.9533       0.1904E-1    0.6791   
    9.610       0.6258E-2    0.9529       0.1854E-1    0.6807   
    9.620       0.6151E-2    0.9525       0.1808E-1    0.6823   
    9.630       0.5958E-2    0.9522       0.1768E-1    0.6840   
    9.640       0.5699E-2    0.9520       0.1731E-1    0.6856   
    9.650       0.5397E-2    0.9518       0.1698E-1    0.6871   
    9.660       0.5074E-2    0.9517       0.1669E-1    0.6887   
    9.670       0.4747E-2    0.9516       0.1643E-1    0.6902   
    9.680       0.4429E-2    0.9516       0.1620E-1    0.6918   
    9.690       0.4130E-2    0.9517       0.1600E-1    0.6933   
    9.700       0.3854E-2    0.9518       0.1582E-1    0.6948   
    9.710       0.3604E-2    0.9519       0.1567E-1    0.6962   
    9.720       0.3377E-2    0.9521       0.1554E-1    0.6977   
    9.730       0.3175E-2    0.9522       0.1544E-1    0.6992   
    9.740       0.2995E-2    0.9524       0.1536E-1    0.7006   
    9.750       0.2835E-2    0.9526       0.1530E-1    0.7021   
    9.760       0.2693E-2    0.9528       0.1527E-1    0.7035   
    9.770       0.2566E-2    0.9530       0.1526E-1    0.7050   
    9.780       0.2454E-2    0.9531       0.1528E-1    0.7064   
    9.790       0.2355E-2    0.9533       0.1532E-1    0.7078   
    9.800       0.2266E-2    0.9535       0.1539E-1    0.7092   
    9.810       0.2187E-2    0.9537       0.1549E-1    0.7107   
    9.820       0.2116E-2    0.9539       0.1563E-1    0.7121   
    9.830       0.2054E-2    0.9540       0.1580E-1    0.7135   
    9.840       0.1998E-2    0.9542       0.1601E-1    0.7149   
    9.850       0.1948E-2    0.9544       0.1626E-1    0.7163   
    9.860       0.1903E-2    0.9546       0.1655E-1    0.7178   
    9.870       0.1863E-2    0.9547       0.1690E-1    0.7192   
    9.880       0.1828E-2    0.9549       0.1731E-1    0.7206   
    9.890       0.1797E-2    0.9551       0.1779E-1    0.7220   
    9.900       0.1769E-2    0.9552       0.1834E-1    0.7234   
    9.910       0.1745E-2    0.9554       0.1898E-1    0.7248   
    9.920       0.1725E-2    0.9556       0.1971E-1    0.7262   
    9.930       0.1707E-2    0.9557       0.2055E-1    0.7275   
    9.940       0.1692E-2    0.9559       0.2151E-1    0.7288   
    9.950       0.1680E-2    0.9560       0.2259E-1    0.7299   
    9.960       0.1671E-2    0.9562       0.2382E-1    0.7310   
    9.970       0.1664E-2    0.9564       0.2518E-1    0.7320   
    9.980       0.1660E-2    0.9565       0.2668E-1    0.7327   
    9.990       0.1659E-2    0.9567       0.2830E-1    0.7332   
    10.00       0.1660E-2    0.9568       0.3001E-1    0.7335   
# 
# 11/06/2019 at 14:15 YAMBO @ dufour [start]
# 11/06/2019 at 14:16                [end]
#  
# Timing   [Min/Max/Average]: 46s/46s/46s
#
# .-Input file : Outputs/00_bse_00_bse.in
# | optics                         # [R OPT] Optics
# | bse                            # [R BSE] Bethe Salpeter Equation.
# | bsk                            # [R BSK] Bethe Salpeter Equation kernel
# | bss                            # [R BSS] Bethe Salpeter Equation solver
# | em1s                           # [R Xs] Static Inverse Dielectric Matrix
# | BoseTemp= 0.000000     eV      # Bosonic Temperature
# | X_Threads= 1                   # [OPENMP/X] Number of threads for response functions
# | DIP_Threads= 1                 # [OPENMP/X] Number of threads for dipoles
# | K_Threads= 1                   # [OPENMP/BSK] Number of threads for response functions
# | Chimod= "HARTREE"              # [X] IP/Hartree/ALDA/LRC/PF/BSfxc
# | BSEmod= "retarded"             # [BSE] resonant/retarded/coupling
# | BSKmod= "SEX"                  # [BSE] IP/Hartree/HF/ALDA/SEX
# | BSSmod= "d"                    # [BSS] (h)aydock/(d)iagonalization/(i)nversion/(t)ddft`
# | BSENGexx=  4531        RL      # [BSK] Exchange components
# | BSENGBlk= 111          RL      # [BSK] Screened interaction block size
# | #WehCpl                        # [BSK] eh interaction included also in coupling
# | % KfnQP_E
# |  3.500000 | 1.000000 | 1.000000 |        # [EXTQP BSK BSS] E parameters  (c/v) eV|adim|adim
# | %
# | % BEnRange
# |   0.00000 | 10.00000 | eV      # [BSS] Energy range
# | %
# | % BDmRange
# |   0.10000 |  0.10000 | eV      # [BSS] Damping range
# | %
# | BEnSteps= 1000                 # [BSS] Energy steps
# | % BLongDir
# | 0.1000E-4 | 0.000    | 0.000    |        # [BSS] [cc] Electric Field
# | %
# | % BSEBands
# |  1 | 2 |                       # [BSK] Bands range
# | %
# | WRbsWF                         # [BSS] Write to disk excitonic the WFs
# | % QpntsRXs
# |    1 |  41 |                   # [Xs] Transferred momenta
# | %
# | % BndsRnXs
# |   1 | 20 |                     # [Xs] Polarization function bands
# | %
# | NGsBlkXs= 111          RL      # [Xs] Response block size
# | % DmRngeXs
# |   0.10000 |  0.10000 | eV      # [Xs] Damping range
# | %
# | % LongDrXs
# | 0.1000E-4 | 0.000    | 0.000    |        # [Xs] [cc] Electric Field
# | %
