#                                                           
# :::   :::   :::     ::::    ::::  :::::::::   ::::::::    
# :+:   :+: :+: :+:   +:+:+: :+:+:+ :+:    :+: :+:    :+:   
#  +:+ +:+ +:+   +:+  +:+ +:+:+ +:+ +:+    +:+ +:+    +:+   
#   +#++: +#++:++#++: +#+  +:+  +#+ +#++:++#+  +#+    +:+   
#    +#+  +#+     +#+ +#+       +#+ +#+    +#+ +#+    +#+   
#    #+#  #+#     #+# #+#       #+# #+#    #+# #+#    #+#   
#    ###  ###     ### ###       ### #########   ########    
#                                                           
#             GPL Version 4.0.0 Revision 4281               
#                    MPI+OpenMP Build                       
#                http://www.yambo-code.org                  
#
# Reflectivity @ Q(1) [q->0 direction] :0.1000E-4  0.000     0.000   
#
#
# - Energies      are +Vosko, Wilk & Nusair (VWN5_RPA)(C)
# - Wavefunctions are +Vosko, Wilk & Nusair (VWN5_RPA)(C)
#
# - The Green`s function is causal -
# - Using the Length Gauge -
# - [r,Vnl] is *NOT* included -
#
#   BSK|Identifier              :8897
#      |Dimension               :144
#      |Bands                   :1 - 40
#      |Exchange           [res]: yes
#      |Correlation        [res]: no
#      |Kernel`s coupling       : yes
#      |Exchange           [cpl]: yes
#      |W interaction is bare   : no
#      |Correlation        [cpl]: no
#      |ALDA kernel in R-space  : yes
#      |RL vectors    [exchange]:50301
#      |E/h energy range    [ev]:-1.000000 - -1.000000
#      |Coupling range     [o/o]: 100.0000 -  100.0000
#  
#   Haydock|Accuracy (requested) [o/o]:0.1000E-2
#          |Accuracy (reached)   [o/o]:0.3187E-3
#          |Iteration                 :58
#
#  E/ev[1]    eel /Im[2] eel /Re[3] eel0/Im[4] eel0/Re[5] eel`/Im[6] eel`/Re[7]
#
  6.000     0.2217E-3  -.9866     0.9296E-3  -.9721     0.2217E-3  -.9866   
  6.015     0.2237E-3  -.9865     0.9419E-3  -.9720     0.2237E-3  -.9865   
  6.030     0.2257E-3  -.9865     0.9544E-3  -.9718     0.2257E-3  -.9865   
  6.045     0.2277E-3  -.9865     0.9671E-3  -.9717     0.2277E-3  -.9865   
  6.060     0.2298E-3  -.9864     0.9801E-3  -.9715     0.2298E-3  -.9864   
  6.075     0.2318E-3  -.9864     0.9934E-3  -.9714     0.2318E-3  -.9864   
  6.090     0.2339E-3  -.9864     0.1007E-2  -.9712     0.2339E-3  -.9864   
  6.105     0.2361E-3  -.9863     0.1021E-2  -.9711     0.2361E-3  -.9863   
  6.120     0.2382E-3  -.9863     0.1035E-2  -.9709     0.2382E-3  -.9863   
  6.135     0.2404E-3  -.9863     0.1049E-2  -.9708     0.2404E-3  -.9863   
  6.150     0.2427E-3  -.9862     0.1064E-2  -.9706     0.2427E-3  -.9862   
  6.165     0.2450E-3  -.9862     0.1079E-2  -.9705     0.2450E-3  -.9862   
  6.180     0.2473E-3  -.9861     0.1094E-2  -.9703     0.2473E-3  -.9861   
  6.195     0.2496E-3  -.9861     0.1110E-2  -.9701     0.2496E-3  -.9861   
  6.211     0.2520E-3  -.9861     0.1126E-2  -.9700     0.2520E-3  -.9861   
  6.226     0.2544E-3  -.9860     0.1142E-2  -.9698     0.2544E-3  -.9860   
  6.241     0.2569E-3  -.9860     0.1159E-2  -.9696     0.2569E-3  -.9860   
  6.256     0.2594E-3  -.9860     0.1176E-2  -.9694     0.2594E-3  -.9860   
  6.271     0.2619E-3  -.9859     0.1193E-2  -.9693     0.2619E-3  -.9859   
  6.286     0.2645E-3  -.9859     0.1211E-2  -.9691     0.2645E-3  -.9859   
  6.301     0.2671E-3  -.9858     0.1229E-2  -.9689     0.2671E-3  -.9858   
  6.316     0.2698E-3  -.9858     0.1248E-2  -.9687     0.2698E-3  -.9858   
  6.331     0.2725E-3  -.9858     0.1267E-2  -.9685     0.2725E-3  -.9858   
  6.346     0.2752E-3  -.9857     0.1286E-2  -.9683     0.2752E-3  -.9857   
  6.361     0.2781E-3  -.9857     0.1306E-2  -.9681     0.2781E-3  -.9857   
  6.376     0.2809E-3  -.9856     0.1327E-2  -.9679     0.2809E-3  -.9856   
  6.391     0.2838E-3  -.9856     0.1348E-2  -.9677     0.2838E-3  -.9856   
  6.406     0.2868E-3  -.9855     0.1369E-2  -.9675     0.2868E-3  -.9855   
  6.421     0.2898E-3  -.9855     0.1391E-2  -.9673     0.2898E-3  -.9855   
  6.436     0.2929E-3  -.9855     0.1413E-2  -.9671     0.2929E-3  -.9855   
  6.451     0.2960E-3  -.9854     0.1437E-2  -.9669     0.2960E-3  -.9854   
  6.466     0.2992E-3  -.9854     0.1460E-2  -.9667     0.2992E-3  -.9854   
  6.481     0.3024E-3  -.9853     0.1484E-2  -.9665     0.3024E-3  -.9853   
  6.496     0.3057E-3  -.9853     0.1509E-2  -.9663     0.3057E-3  -.9853   
  6.511     0.3091E-3  -.9852     0.1535E-2  -.9660     0.3091E-3  -.9852   
  6.526     0.3126E-3  -.9852     0.1561E-2  -.9658     0.3126E-3  -.9852   
  6.541     0.3161E-3  -.9851     0.1587E-2  -.9656     0.3161E-3  -.9851   
  6.556     0.3197E-3  -.9851     0.1615E-2  -.9653     0.3197E-3  -.9851   
  6.571     0.3233E-3  -.9850     0.1643E-2  -.9651     0.3233E-3  -.9850   
  6.586     0.3270E-3  -.9850     0.1672E-2  -.9648     0.3270E-3  -.9850   
  6.602     0.3309E-3  -.9849     0.1702E-2  -.9646     0.3309E-3  -.9849   
  6.617     0.3347E-3  -.9849     0.1733E-2  -.9643     0.3347E-3  -.9849   
  6.632     0.3387E-3  -.9848     0.1764E-2  -.9641     0.3387E-3  -.9848   
  6.647     0.3428E-3  -.9848     0.1796E-2  -.9638     0.3428E-3  -.9848   
  6.662     0.3469E-3  -.9847     0.1830E-2  -.9635     0.3469E-3  -.9847   
  6.677     0.3512E-3  -.9847     0.1864E-2  -.9633     0.3512E-3  -.9847   
  6.692     0.3555E-3  -.9846     0.1899E-2  -.9630     0.3555E-3  -.9846   
  6.707     0.3599E-3  -.9846     0.1935E-2  -.9627     0.3599E-3  -.9846   
  6.722     0.3645E-3  -.9845     0.1973E-2  -.9624     0.3645E-3  -.9845   
  6.737     0.3691E-3  -.9845     0.2011E-2  -.9621     0.3691E-3  -.9845   
  6.752     0.3739E-3  -.9844     0.2051E-2  -.9618     0.3739E-3  -.9844   
  6.767     0.3788E-3  -.9844     0.2091E-2  -.9615     0.3788E-3  -.9844   
  6.782     0.3838E-3  -.9843     0.2133E-2  -.9612     0.3838E-3  -.9843   
  6.797     0.3889E-3  -.9842     0.2177E-2  -.9608     0.3889E-3  -.9842   
  6.812     0.3941E-3  -.9842     0.2222E-2  -.9605     0.3941E-3  -.9842   
  6.827     0.3995E-3  -.9841     0.2268E-2  -.9602     0.3995E-3  -.9841   
  6.842     0.4050E-3  -.9841     0.2316E-2  -.9598     0.4050E-3  -.9841   
  6.857     0.4107E-3  -.9840     0.2365E-2  -.9595     0.4107E-3  -.9840   
  6.872     0.4165E-3  -.9839     0.2416E-2  -.9591     0.4165E-3  -.9839   
  6.887     0.4225E-3  -.9839     0.2469E-2  -.9588     0.4225E-3  -.9839   
  6.902     0.4286E-3  -.9838     0.2523E-2  -.9584     0.4286E-3  -.9838   
  6.917     0.4350E-3  -.9838     0.2579E-2  -.9580     0.4350E-3  -.9838   
  6.932     0.4415E-3  -.9837     0.2638E-2  -.9576     0.4415E-3  -.9837   
  6.947     0.4481E-3  -.9836     0.2698E-2  -.9572     0.4481E-3  -.9836   
  6.962     0.4550E-3  -.9836     0.2761E-2  -.9568     0.4550E-3  -.9836   
  6.977     0.4621E-3  -.9835     0.2826E-2  -.9564     0.4621E-3  -.9835   
  6.992     0.4694E-3  -.9834     0.2893E-2  -.9560     0.4694E-3  -.9834   
  7.008     0.4770E-3  -.9833     0.2963E-2  -.9556     0.4770E-3  -.9833   
  7.023     0.4847E-3  -.9833     0.3036E-2  -.9551     0.4847E-3  -.9833   
  7.038     0.4928E-3  -.9832     0.3111E-2  -.9547     0.4928E-3  -.9832   
  7.053     0.5011E-3  -.9831     0.3190E-2  -.9542     0.5011E-3  -.9831   
  7.068     0.5096E-3  -.9831     0.3272E-2  -.9537     0.5096E-3  -.9831   
  7.083     0.5185E-3  -.9830     0.3357E-2  -.9532     0.5185E-3  -.9830   
  7.098     0.5276E-3  -.9829     0.3445E-2  -.9527     0.5276E-3  -.9829   
  7.113     0.5371E-3  -.9828     0.3538E-2  -.9522     0.5371E-3  -.9828   
  7.128     0.5469E-3  -.9827     0.3634E-2  -.9517     0.5469E-3  -.9827   
  7.143     0.5571E-3  -.9827     0.3734E-2  -.9511     0.5571E-3  -.9827   
  7.158     0.5677E-3  -.9826     0.3839E-2  -.9506     0.5677E-3  -.9826   
  7.173     0.5787E-3  -.9825     0.3949E-2  -.9500     0.5787E-3  -.9825   
  7.188     0.5901E-3  -.9824     0.4064E-2  -.9494     0.5901E-3  -.9824   
  7.203     0.6019E-3  -.9823     0.4184E-2  -.9488     0.6019E-3  -.9823   
  7.218     0.6142E-3  -.9822     0.4311E-2  -.9482     0.6142E-3  -.9822   
  7.233     0.6271E-3  -.9821     0.4443E-2  -.9475     0.6271E-3  -.9821   
  7.248     0.6405E-3  -.9820     0.4582E-2  -.9469     0.6405E-3  -.9820   
  7.263     0.6544E-3  -.9819     0.4728E-2  -.9462     0.6544E-3  -.9819   
  7.278     0.6690E-3  -.9818     0.4882E-2  -.9455     0.6690E-3  -.9818   
  7.293     0.6842E-3  -.9817     0.5044E-2  -.9448     0.6842E-3  -.9817   
  7.308     0.7002E-3  -.9816     0.5215E-2  -.9440     0.7002E-3  -.9816   
  7.323     0.7169E-3  -.9815     0.5395E-2  -.9432     0.7169E-3  -.9815   
  7.338     0.7344E-3  -.9814     0.5586E-2  -.9424     0.7344E-3  -.9814   
  7.353     0.7528E-3  -.9813     0.5788E-2  -.9416     0.7528E-3  -.9813   
  7.368     0.7721E-3  -.9812     0.6002E-2  -.9407     0.7721E-3  -.9812   
  7.383     0.7924E-3  -.9811     0.6230E-2  -.9399     0.7924E-3  -.9811   
  7.398     0.8137E-3  -.9810     0.6472E-2  -.9389     0.8137E-3  -.9810   
  7.414     0.8363E-3  -.9809     0.6730E-2  -.9380     0.8363E-3  -.9809   
  7.429     0.8601E-3  -.9807     0.7005E-2  -.9370     0.8601E-3  -.9807   
  7.444     0.8853E-3  -.9806     0.7299E-2  -.9360     0.8853E-3  -.9806   
  7.459     0.9120E-3  -.9805     0.7615E-2  -.9349     0.9120E-3  -.9805   
  7.474     0.9403E-3  -.9803     0.7954E-2  -.9338     0.9403E-3  -.9803   
  7.489     0.9704E-3  -.9802     0.8318E-2  -.9326     0.9704E-3  -.9802   
  7.504     0.1002E-2  -.9800     0.8712E-2  -.9314     0.1002E-2  -.9800   
  7.519     0.1036E-2  -.9799     0.9137E-2  -.9302     0.1036E-2  -.9799   
  7.534     0.1073E-2  -.9797     0.9599E-2  -.9288     0.1073E-2  -.9797   
  7.549     0.1112E-2  -.9796     0.1010E-1  -.9275     0.1112E-2  -.9796   
  7.564     0.1154E-2  -.9794     0.1065E-1  -.9260     0.1154E-2  -.9794   
  7.579     0.1198E-2  -.9793     0.1125E-1  -.9245     0.1198E-2  -.9793   
  7.594     0.1247E-2  -.9791     0.1191E-1  -.9229     0.1247E-2  -.9791   
  7.609     0.1299E-2  -.9789     0.1264E-1  -.9213     0.1299E-2  -.9789   
  7.624     0.1355E-2  -.9787     0.1345E-1  -.9195     0.1355E-2  -.9787   
  7.639     0.1416E-2  -.9785     0.1435E-1  -.9177     0.1416E-2  -.9785   
  7.654     0.1483E-2  -.9783     0.1535E-1  -.9157     0.1483E-2  -.9783   
  7.669     0.1555E-2  -.9781     0.1648E-1  -.9137     0.1555E-2  -.9781   
  7.684     0.1634E-2  -.9779     0.1776E-1  -.9116     0.1634E-2  -.9779   
  7.699     0.1721E-2  -.9776     0.1922E-1  -.9093     0.1721E-2  -.9776   
  7.714     0.1816E-2  -.9774     0.2088E-1  -.9069     0.1816E-2  -.9774   
  7.729     0.1922E-2  -.9771     0.2280E-1  -.9045     0.1922E-2  -.9771   
  7.744     0.2038E-2  -.9769     0.2502E-1  -.9019     0.2038E-2  -.9769   
  7.759     0.2168E-2  -.9766     0.2760E-1  -.8993     0.2168E-2  -.9766   
  7.774     0.2313E-2  -.9763     0.3062E-1  -.8966     0.2313E-2  -.9763   
  7.789     0.2476E-2  -.9760     0.3416E-1  -.8940     0.2476E-2  -.9760   
  7.805     0.2659E-2  -.9757     0.3832E-1  -.8915     0.2659E-2  -.9757   
  7.820     0.2866E-2  -.9753     0.4316E-1  -.8893     0.2866E-2  -.9753   
  7.835     0.3102E-2  -.9749     0.4875E-1  -.8877     0.3102E-2  -.9749   
  7.850     0.3371E-2  -.9745     0.5502E-1  -.8871     0.3371E-2  -.9745   
  7.865     0.3681E-2  -.9741     0.6177E-1  -.8877     0.3681E-2  -.9741   
  7.880     0.4038E-2  -.9737     0.6851E-1  -.8900     0.4038E-2  -.9737   
  7.895     0.4454E-2  -.9732     0.7449E-1  -.8941     0.4454E-2  -.9732   
  7.910     0.4940E-2  -.9728     0.7882E-1  -.8997     0.4940E-2  -.9728   
  7.925     0.5512E-2  -.9723     0.8079E-1  -.9061     0.5512E-2  -.9723   
  7.940     0.6188E-2  -.9718     0.8026E-1  -.9119     0.6188E-2  -.9718   
  7.955     0.6990E-2  -.9713     0.7774E-1  -.9163     0.6990E-2  -.9713   
  7.970     0.7945E-2  -.9708     0.7412E-1  -.9185     0.7945E-2  -.9708   
    7.9850     0.0091    -0.9703     0.0703    -0.9187     0.0091    -0.9703
   8.00000    0.01043   -0.96999    0.06695   -0.91704    0.01043   -0.96999
   8.01504    0.01202   -0.96982    0.06443   -0.91393    0.01202   -0.96982
   8.03008    0.01386   -0.96991    0.06293   -0.90975    0.01386   -0.96991
   8.04511    0.01590   -0.97042    0.06251   -0.90477    0.01590   -0.97042
   8.06015    0.01805   -0.97147    0.06319   -0.89918    0.01805   -0.97147
   8.07519    0.02010   -0.97321    0.06497   -0.89312    0.02010   -0.97321
   8.09023    0.02175   -0.97563    0.06789   -0.88667    0.02175   -0.97563
   8.10526    0.02266   -0.97860    0.07202   -0.87989    0.02266   -0.97860
   8.12030    0.02264   -0.98175    0.07748   -0.87283    0.02264   -0.98175
   8.13534    0.02168   -0.98466    0.08443   -0.86556    0.02168   -0.98466
   8.15038    0.02003   -0.98701    0.09311   -0.85818    0.02003   -0.98701
   8.16541    0.01801   -0.98865    0.10380   -0.85087    0.01801   -0.98865
   8.18045    0.01592   -0.98962    0.11687   -0.84390    0.01592   -0.98962
   8.19549    0.01394   -0.99005    0.13274   -0.83772    0.01394   -0.99005
   8.21053    0.01218   -0.99007    0.15183   -0.83302    0.01218   -0.99007
   8.22556    0.01068   -0.98983    0.17450   -0.83086    0.01068   -0.98983
    8.2406     0.0094    -0.9894     0.2008    -0.8327     0.0094    -0.9894
    8.2556     0.0084    -0.9889     0.2303    -0.8405     0.0084    -0.9889
  8.271     0.7487E-2  -.9884     0.2615     -.8565     0.7486E-2  -.9884   
  8.286     0.6774E-2  -.9878     0.2912     -.8824     0.6774E-2  -.9878   
  8.301     0.6193E-2  -.9872     0.3152     -.9186     0.6193E-2  -.9872   
  8.316     0.5722E-2  -.9866     0.3286     -.9627     0.5722E-2  -.9866   
  8.331     0.5346E-2  -.9860     0.3283     -1.010     0.5346E-2  -.9860   
  8.346     0.5052E-2  -.9855     0.3144     -1.053     0.5052E-2  -.9855   
  8.361     0.4830E-2  -.9849     0.2903     -1.089     0.4830E-2  -.9849   
  8.376     0.4675E-2  -.9844     0.2608     -1.114     0.4675E-2  -.9844   
  8.391     0.4582E-2  -.9839     0.2302     -1.130     0.4582E-2  -.9839   
  8.406     0.4550E-2  -.9834     0.2015     -1.137     0.4550E-2  -.9834   
  8.421     0.4579E-2  -.9829     0.1761     -1.139     0.4579E-2  -.9829   
  8.436     0.4670E-2  -.9825     0.1545     -1.137     0.4670E-2  -.9825   
  8.451     0.4823E-2  -.9821     0.1364     -1.133     0.4823E-2  -.9821   
  8.466     0.5036E-2  -.9818     0.1215     -1.128     0.5036E-2  -.9818   
  8.481     0.5299E-2  -.9815     0.1091     -1.123     0.5299E-2  -.9815   
  8.496     0.5588E-2  -.9814     0.9863E-1  -1.117     0.5589E-2  -.9814   
  8.511     0.5866E-2  -.9813     0.8954E-1  -1.112     0.5866E-2  -.9813   
  8.526     0.6078E-2  -.9814     0.8148E-1  -1.107     0.6078E-2  -.9814   
  8.541     0.6172E-2  -.9816     0.7426E-1  -1.102     0.6173E-2  -.9816   
  8.556     0.6121E-2  -.9818     0.6784E-1  -1.097     0.6122E-2  -.9818   
  8.571     0.5937E-2  -.9819     0.6223E-1  -1.092     0.5937E-2  -.9819   
  8.586     0.5665E-2  -.9820     0.5744E-1  -1.087     0.5665E-2  -.9820   
  8.602     0.5359E-2  -.9819     0.5345E-1  -1.081     0.5359E-2  -.9819   
  8.617     0.5068E-2  -.9817     0.5023E-1  -1.076     0.5068E-2  -.9817   
  8.632     0.4821E-2  -.9814     0.4774E-1  -1.071     0.4821E-2  -.9814   
  8.647     0.4634E-2  -.9811     0.4592E-1  -1.067     0.4634E-2  -.9811   
  8.662     0.4513E-2  -.9807     0.4475E-1  -1.062     0.4512E-2  -.9807   
  8.677     0.4457E-2  -.9804     0.4418E-1  -1.058     0.4456E-2  -.9804   
  8.692     0.4465E-2  -.9800     0.4416E-1  -1.055     0.4464E-2  -.9800   
  8.707     0.4530E-2  -.9796     0.4457E-1  -1.052     0.4530E-2  -.9796   
  8.722     0.4646E-2  -.9793     0.4524E-1  -1.050     0.4647E-2  -.9793   
  8.737     0.4798E-2  -.9790     0.4590E-1  -1.048     0.4800E-2  -.9790   
  8.752     0.4969E-2  -.9788     0.4622E-1  -1.048     0.4972E-2  -.9788   
  8.767     0.5140E-2  -.9786     0.4593E-1  -1.048     0.5142E-2  -.9786   
  8.782     0.5295E-2  -.9785     0.4496E-1  -1.048     0.5295E-2  -.9785   
  8.797     0.5427E-2  -.9784     0.4341E-1  -1.048     0.5420E-2  -.9784   
  8.812     0.5525E-2  -.9783     0.4153E-1  -1.047     0.5513E-2  -.9783   
  8.827     0.5581E-2  -.9782     0.3956E-1  -1.046     0.5567E-2  -.9782   
  8.842     0.5579E-2  -.9782     0.3764E-1  -1.044     0.5572E-2  -.9782   
  8.857     0.5517E-2  -.9781     0.3586E-1  -1.043     0.5520E-2  -.9781   
  8.872     0.5407E-2  -.9780     0.3422E-1  -1.041     0.5420E-2  -.9779   
  8.887     0.5276E-2  -.9777     0.3278E-1  -1.039     0.5295E-2  -.9777   
  8.902     0.5154E-2  -.9774     0.3159E-1  -1.036     0.5174E-2  -.9774   
  8.917     0.5066E-2  -.9771     0.3069E-1  -1.034     0.5084E-2  -.9771   
  8.932     0.5029E-2  -.9766     0.3015E-1  -1.031     0.5042E-2  -.9766   
  8.947     0.5052E-2  -.9761     0.3000E-1  -1.028     0.5059E-2  -.9762   
  8.962     0.5141E-2  -.9756     0.3027E-1  -1.025     0.5141E-2  -.9757   
  8.977     0.5300E-2  -.9751     0.3096E-1  -1.022     0.5294E-2  -.9751   
  8.992     0.5536E-2  -.9746     0.3211E-1  -1.020     0.5521E-2  -.9746   
  9.008     0.5853E-2  -.9740     0.3370E-1  -1.017     0.5831E-2  -.9740   
  9.023     0.6262E-2  -.9734     0.3574E-1  -1.015     0.6232E-2  -.9735   
  9.038     0.6771E-2  -.9729     0.3816E-1  -1.013     0.6735E-2  -.9729   
  9.053     0.7390E-2  -.9724     0.4091E-1  -1.012     0.7351E-2  -.9724   
  9.068     0.8122E-2  -.9720     0.4390E-1  -1.011     0.8088E-2  -.9719   
  9.083     0.8966E-2  -.9716     0.4706E-1  -1.011     0.8949E-2  -.9716   
    9.0977     0.0099    -0.9715     0.0503    -1.0116     0.0099    -0.9714
   9.11278    0.01090   -0.97142    0.05354   -1.01304    0.01097   -0.97134
   9.12782    0.01191   -0.97156    0.05644   -1.01539    0.01203   -0.97153
   9.14286    0.01291   -0.97188    0.05863   -1.01864    0.01306   -0.97193
   9.15790    0.01388   -0.97237    0.05973   -1.02251    0.01400   -0.97251
   9.17293    0.01481   -0.97306    0.05952   -1.02653    0.01483   -0.97327
   9.18797    0.01565   -0.97400    0.05806   -1.03014    0.01553   -0.97419
   9.20301    0.01628   -0.97521    0.05571   -1.03290    0.01606   -0.97530
   9.21805    0.01655   -0.97662    0.05295   -1.03463    0.01632   -0.97658
   9.23308    0.01636   -0.97810    0.05022   -1.03545    0.01620   -0.97794
   9.24812    0.01571   -0.97942    0.04783   -1.03560    0.01565   -0.97921
   9.26316    0.01471   -0.98041    0.04583   -1.03541    0.01476   -0.98021
   9.27820    0.01353   -0.98099    0.04412   -1.03512    0.01366   -0.98086
   9.29323    0.01235   -0.98118    0.04253   -1.03481    0.01250   -0.98112
   9.30827    0.01127   -0.98105    0.04088   -1.03442    0.01142   -0.98105
   9.32331    0.01035   -0.98069    0.03915   -1.03376    0.01047   -0.98074
    9.3383     0.0096    -0.9802     0.0374    -1.0327     0.0097    -0.9802
  9.353     0.9042E-2  -.9795     0.3588E-1  -1.031     0.9100E-2  -.9796   
  9.368     0.8650E-2  -.9789     0.3469E-1  -1.029     0.8672E-2  -.9790   
  9.383     0.8418E-2  -.9781     0.3397E-1  -1.027     0.8404E-2  -.9783   
  9.398     0.8337E-2  -.9774     0.3382E-1  -1.025     0.8286E-2  -.9776   
  9.414     0.8399E-2  -.9768     0.3427E-1  -1.022     0.8312E-2  -.9769   
  9.429     0.8596E-2  -.9761     0.3538E-1  -1.020     0.8475E-2  -.9762   
  9.444     0.8917E-2  -.9756     0.3716E-1  -1.018     0.8769E-2  -.9756   
  9.459     0.9339E-2  -.9751     0.3963E-1  -1.016     0.9178E-2  -.9751   
    9.4737     0.0098    -0.9749     0.0427    -1.0148     0.0097    -0.9748
   9.48872    0.01029   -0.97475    0.04638   -1.01457    0.01019   -0.97457
   9.50376    0.01068   -0.97479    0.05023   -1.01557    0.01067   -0.97456
   9.51880    0.01092   -0.97491    0.05384   -1.01792    0.01102   -0.97469
   9.53384    0.01100   -0.97502    0.05662   -1.02153    0.01120   -0.97486
   9.54887    0.01095   -0.97502    0.05806   -1.02598    0.01121   -0.97498
   9.56391    0.01088   -0.97489    0.05793   -1.03061    0.01113   -0.97496
   9.57895    0.01085   -0.97461    0.05642   -1.03476    0.01105   -0.97479
   9.59398    0.01094   -0.97424    0.05395   -1.03805    0.01104   -0.97449
   9.60902    0.01119   -0.97384    0.05101   -1.04036    0.01118   -0.97412
   9.62406    0.01161   -0.97350    0.04791   -1.04180    0.01148   -0.97375
   9.63910    0.01218   -0.97329    0.04486   -1.04250    0.01195   -0.97346
   9.65414    0.01282   -0.97329    0.04197   -1.04257    0.01253   -0.97335
   9.66917    0.01344   -0.97354    0.03936   -1.04211    0.01315   -0.97346
   9.68421    0.01391   -0.97403    0.03709   -1.04125    0.01368   -0.97382
   9.69925    0.01410   -0.97466    0.03519   -1.04012    0.01400   -0.97437
   9.71429    0.01397   -0.97528    0.03364   -1.03884    0.01402   -0.97498
   9.72932    0.01358   -0.97572    0.03235   -1.03748    0.01375   -0.97549
   9.74436    0.01304   -0.97590    0.03126   -1.03602    0.01327   -0.97578
   9.75940    0.01249   -0.97580    0.03037   -1.03442    0.01273   -0.97580
   9.77444    0.01203   -0.97547    0.02973   -1.03264    0.01225   -0.97555
   9.78947    0.01175   -0.97497    0.02941   -1.03069    0.01190   -0.97512
   9.80451    0.01166   -0.97436    0.02949   -1.02860    0.01174   -0.97455
   9.81955    0.01180   -0.97374    0.03004   -1.02647    0.01180   -0.97394
   9.83459    0.01216   -0.97315    0.03109   -1.02437    0.01209   -0.97334
   9.84962    0.01273   -0.97269    0.03268   -1.02241    0.01259   -0.97284
   9.86466    0.01348   -0.97243    0.03481   -1.02070    0.01329   -0.97252
   9.87970    0.01433   -0.97246    0.03746   -1.01935    0.01412   -0.97246
   9.89474    0.01518   -0.97284    0.04062   -1.01848    0.01498   -0.97274
   9.90977    0.01584   -0.97357    0.04427   -1.01824    0.01571   -0.97338
   9.92481    0.01615   -0.97455    0.04838   -1.01882    0.01613   -0.97432
   9.93985    0.01603   -0.97560    0.05281   -1.02050    0.01613   -0.97539
   9.95489    0.01550   -0.97650    0.05724   -1.02360    0.01568   -0.97638
   9.96992    0.01469   -0.97711    0.06109   -1.02828    0.01490   -0.97710
   9.98496    0.01378   -0.97739    0.06366   -1.03436    0.01395   -0.97748
  10.00000    0.01289   -0.97738    0.06435   -1.04126    0.01299   -0.97753
  10.01504    0.01212   -0.97716    0.06300   -1.04811    0.01213   -0.97733
  10.03008    0.01148   -0.97682    0.05991   -1.05416    0.01141   -0.97696
  10.04511    0.01097   -0.97643    0.05566   -1.05896    0.01084   -0.97651
  10.06015    0.01053   -0.97604    0.05081   -1.06244    0.01040   -0.97603
  10.08     0.1014E-1  -.9756     0.4580E-1  -1.065     0.1005E-1  -.9756   
  10.09     0.9773E-2  -.9752     0.4089E-1  -1.066     0.9737E-2  -.9751   
  10.11     0.9418E-2  -.9748     0.3626E-1  -1.066     0.9440E-2  -.9747   
  10.12     0.9091E-2  -.9744     0.3202E-1  -1.066     0.9143E-2  -.9743   
  10.14     0.8797E-2  -.9739     0.2824E-1  -1.065     0.8851E-2  -.9739   
  10.15     0.8531E-2  -.9734     0.2493E-1  -1.064     0.8568E-2  -.9734   
  10.17     0.8273E-2  -.9729     0.2208E-1  -1.063     0.8288E-2  -.9730   
  10.18     0.8002E-2  -.9725     0.1964E-1  -1.061     0.8003E-2  -.9725   
  10.20     0.7712E-2  -.9720     0.1757E-1  -1.060     0.7705E-2  -.9720   
  10.21     0.7409E-2  -.9714     0.1580E-1  -1.058     0.7401E-2  -.9714   
  10.23     0.7112E-2  -.9708     0.1429E-1  -1.056     0.7106E-2  -.9708   
  10.24     0.6839E-2  -.9701     0.1299E-1  -1.055     0.6835E-2  -.9701   
  10.26     0.6603E-2  -.9694     0.1187E-1  -1.054     0.6601E-2  -.9694   
  10.27     0.6408E-2  -.9687     0.1090E-1  -1.052     0.6407E-2  -.9687   
  10.29     0.6256E-2  -.9679     0.1005E-1  -1.051     0.6255E-2  -.9679   
  10.30     0.6142E-2  -.9671     0.9313E-2  -1.050     0.6142E-2  -.9671   
  10.32     0.6063E-2  -.9663     0.8659E-2  -1.049     0.6063E-2  -.9663   
  10.33     0.6016E-2  -.9655     0.8079E-2  -1.048     0.6016E-2  -.9655   
  10.35     0.5996E-2  -.9646     0.7563E-2  -1.047     0.5996E-2  -.9646   
  10.36     0.6001E-2  -.9638     0.7101E-2  -1.046     0.6001E-2  -.9638   
  10.38     0.6027E-2  -.9630     0.6687E-2  -1.045     0.6027E-2  -.9630   
  10.39     0.6074E-2  -.9621     0.6312E-2  -1.044     0.6074E-2  -.9621   
  10.41     0.6139E-2  -.9612     0.5973E-2  -1.043     0.6139E-2  -.9612   
  10.42     0.6222E-2  -.9603     0.5664E-2  -1.042     0.6222E-2  -.9603   
  10.44     0.6321E-2  -.9594     0.5383E-2  -1.041     0.6321E-2  -.9594   
  10.45     0.6436E-2  -.9585     0.5126E-2  -1.041     0.6436E-2  -.9585   
  10.47     0.6567E-2  -.9576     0.4889E-2  -1.040     0.6567E-2  -.9576   
  10.48     0.6713E-2  -.9566     0.4671E-2  -1.039     0.6713E-2  -.9566   
  10.50     0.6876E-2  -.9556     0.4470E-2  -1.039     0.6876E-2  -.9556   
  10.51     0.7054E-2  -.9546     0.4284E-2  -1.038     0.7054E-2  -.9546   
  10.53     0.7249E-2  -.9536     0.4111E-2  -1.037     0.7249E-2  -.9536   
  10.54     0.7460E-2  -.9525     0.3951E-2  -1.037     0.7460E-2  -.9525   
  10.56     0.7690E-2  -.9514     0.3801E-2  -1.036     0.7690E-2  -.9514   
  10.57     0.7938E-2  -.9503     0.3661E-2  -1.036     0.7938E-2  -.9503   
  10.59     0.8205E-2  -.9491     0.3530E-2  -1.035     0.8205E-2  -.9491   
  10.60     0.8494E-2  -.9479     0.3407E-2  -1.035     0.8494E-2  -.9479   
  10.62     0.8805E-2  -.9467     0.3292E-2  -1.034     0.8805E-2  -.9467   
  10.63     0.9140E-2  -.9454     0.3183E-2  -1.034     0.9140E-2  -.9454   
  10.65     0.9500E-2  -.9440     0.3081E-2  -1.033     0.9500E-2  -.9440   
  10.66     0.9889E-2  -.9426     0.2985E-2  -1.033     0.9889E-2  -.9426   
  10.68     0.1031E-1  -.9412     0.2894E-2  -1.032     0.1031E-1  -.9412   
  10.69     0.1076E-1  -.9397     0.2807E-2  -1.032     0.1076E-1  -.9397   
  10.71     0.1125E-1  -.9381     0.2725E-2  -1.032     0.1125E-1  -.9381   
  10.72     0.1177E-1  -.9365     0.2648E-2  -1.031     0.1177E-1  -.9365   
  10.74     0.1234E-1  -.9348     0.2574E-2  -1.031     0.1234E-1  -.9348   
  10.75     0.1296E-1  -.9330     0.2504E-2  -1.030     0.1296E-1  -.9330   
  10.77     0.1363E-1  -.9311     0.2437E-2  -1.030     0.1363E-1  -.9311   
  10.78     0.1435E-1  -.9292     0.2374E-2  -1.030     0.1435E-1  -.9292   
  10.80     0.1514E-1  -.9271     0.2313E-2  -1.029     0.1514E-1  -.9271   
  10.81     0.1601E-1  -.9249     0.2255E-2  -1.029     0.1601E-1  -.9249   
  10.83     0.1695E-1  -.9227     0.2200E-2  -1.029     0.1695E-1  -.9227   
  10.84     0.1798E-1  -.9202     0.2147E-2  -1.028     0.1798E-1  -.9202   
  10.86     0.1911E-1  -.9177     0.2096E-2  -1.028     0.1911E-1  -.9177   
  10.87     0.2036E-1  -.9150     0.2047E-2  -1.028     0.2036E-1  -.9150   
  10.89     0.2174E-1  -.9122     0.2000E-2  -1.027     0.2174E-1  -.9122   
  10.90     0.2326E-1  -.9092     0.1956E-2  -1.027     0.2326E-1  -.9092   
  10.92     0.2495E-1  -.9060     0.1913E-2  -1.027     0.2495E-1  -.9060   
  10.93     0.2683E-1  -.9026     0.1871E-2  -1.027     0.2683E-1  -.9026   
  10.95     0.2893E-1  -.8990     0.1832E-2  -1.026     0.2893E-1  -.8990   
  10.96     0.3129E-1  -.8952     0.1793E-2  -1.026     0.3129E-1  -.8952   
  10.98     0.3395E-1  -.8910     0.1756E-2  -1.026     0.3395E-1  -.8910   
  10.99     0.3695E-1  -.8867     0.1721E-2  -1.025     0.3695E-1  -.8867   
  11.01     0.4036E-1  -.8820     0.1687E-2  -1.025     0.4036E-1  -.8820   
  11.02     0.4425E-1  -.8770     0.1654E-2  -1.025     0.4425E-1  -.8770   
  11.04     0.4870E-1  -.8716     0.1622E-2  -1.025     0.4870E-1  -.8716   
  11.05     0.5384E-1  -.8659     0.1591E-2  -1.025     0.5384E-1  -.8659   
  11.07     0.5979E-1  -.8598     0.1561E-2  -1.024     0.5979E-1  -.8598   
  11.08     0.6672E-1  -.8534     0.1532E-2  -1.024     0.6672E-1  -.8534   
  11.10     0.7483E-1  -.8465     0.1505E-2  -1.024     0.7483E-1  -.8465   
  11.11     0.8438E-1  -.8394     0.1478E-2  -1.024     0.8438E-1  -.8394   
  11.13     0.9568E-1  -.8320     0.1452E-2  -1.023     0.9568E-1  -.8320   
  11.14     0.1091     -.8246     0.1426E-2  -1.023     0.1091     -.8246   
  11.16     0.1251     -.8175     0.1402E-2  -1.023     0.1251     -.8175   
  11.17     0.1443     -.8111     0.1378E-2  -1.023     0.1443     -.8111   
  11.19     0.1670     -.8062     0.1355E-2  -1.023     0.1670     -.8062   
  11.20     0.1940     -.8039     0.1333E-2  -1.022     0.1940     -.8039   
  11.22     0.2253     -.8059     0.1312E-2  -1.022     0.2253     -.8059   
  11.23     0.2606     -.8145     0.1291E-2  -1.022     0.2606     -.8145   
  11.25     0.2986     -.8323     0.1270E-2  -1.022     0.2986     -.8323   
  11.26     0.3359     -.8617     0.1251E-2  -1.022     0.3359     -.8617   
  11.28     0.3677     -.9038     0.1231E-2  -1.021     0.3677     -.9038   
  11.29     0.3881     -.9567     0.1213E-2  -1.021     0.3881     -.9567   
  11.31     0.3924     -1.015     0.1195E-2  -1.021     0.3924     -1.015   
  11.32     0.3794     -1.072     0.1177E-2  -1.021     0.3794     -1.072   
  11.34     0.3525     -1.119     0.1160E-2  -1.021     0.3525     -1.119   
  11.35     0.3171     -1.155     0.1143E-2  -1.020     0.3171     -1.155   
  11.37     0.2789     -1.178     0.1127E-2  -1.020     0.2789     -1.178   
  11.38     0.2420     -1.191     0.1111E-2  -1.020     0.2420     -1.191   
  11.40     0.2087     -1.196     0.1096E-2  -1.020     0.2087     -1.196   
  11.41     0.1796     -1.195     0.1081E-2  -1.020     0.1796     -1.195   
  11.43     0.1548     -1.192     0.1067E-2  -1.020     0.1548     -1.192   
  11.44     0.1340     -1.186     0.1053E-2  -1.020     0.1340     -1.186   
  11.46     0.1165     -1.179     0.1039E-2  -1.019     0.1165     -1.179   
  11.47     0.1019     -1.172     0.1026E-2  -1.019     0.1019     -1.172   
  11.49     0.8956E-1  -1.164     0.1012E-2  -1.019     0.8956E-1  -1.164   
  11.50     0.7919E-1  -1.157     0.9998E-3  -1.019     0.7919E-1  -1.157   
  11.52     0.7041E-1  -1.150     0.9874E-3  -1.019     0.7041E-1  -1.150   
  11.53     0.6292E-1  -1.143     0.9754E-3  -1.019     0.6292E-1  -1.143   
  11.55     0.5651E-1  -1.137     0.9637E-3  -1.018     0.5651E-1  -1.137   
  11.56     0.5099E-1  -1.131     0.9522E-3  -1.018     0.5099E-1  -1.131   
  11.58     0.4621E-1  -1.126     0.9411E-3  -1.018     0.4621E-1  -1.126   
  11.59     0.4205E-1  -1.121     0.9303E-3  -1.018     0.4205E-1  -1.121   
  11.61     0.3841E-1  -1.116     0.9197E-3  -1.018     0.3841E-1  -1.116   
  11.62     0.3521E-1  -1.111     0.9094E-3  -1.018     0.3521E-1  -1.111   
  11.64     0.3238E-1  -1.107     0.8994E-3  -1.018     0.3238E-1  -1.107   
  11.65     0.2987E-1  -1.103     0.8897E-3  -1.017     0.2987E-1  -1.103   
  11.67     0.2764E-1  -1.099     0.8802E-3  -1.017     0.2764E-1  -1.099   
  11.68     0.2565E-1  -1.096     0.8709E-3  -1.017     0.2565E-1  -1.096   
  11.70     0.2386E-1  -1.093     0.8619E-3  -1.017     0.2386E-1  -1.093   
  11.71     0.2225E-1  -1.090     0.8532E-3  -1.017     0.2225E-1  -1.090   
  11.73     0.2079E-1  -1.087     0.8446E-3  -1.017     0.2079E-1  -1.087   
  11.74     0.1947E-1  -1.084     0.8363E-3  -1.017     0.1947E-1  -1.084   
  11.76     0.1827E-1  -1.082     0.8283E-3  -1.017     0.1827E-1  -1.082   
  11.77     0.1718E-1  -1.079     0.8204E-3  -1.016     0.1718E-1  -1.079   
  11.79     0.1618E-1  -1.077     0.8128E-3  -1.016     0.1618E-1  -1.077   
  11.80     0.1527E-1  -1.075     0.8054E-3  -1.016     0.1527E-1  -1.075   
  11.82     0.1443E-1  -1.073     0.7982E-3  -1.016     0.1443E-1  -1.073   
  11.83     0.1366E-1  -1.071     0.7912E-3  -1.016     0.1366E-1  -1.071   
  11.85     0.1295E-1  -1.069     0.7844E-3  -1.016     0.1295E-1  -1.069   
  11.86     0.1229E-1  -1.067     0.7779E-3  -1.016     0.1229E-1  -1.067   
  11.88     0.1168E-1  -1.065     0.7715E-3  -1.016     0.1168E-1  -1.065   
  11.89     0.1112E-1  -1.064     0.7653E-3  -1.016     0.1112E-1  -1.064   
  11.91     0.1060E-1  -1.062     0.7593E-3  -1.015     0.1060E-1  -1.062   
  11.92     0.1011E-1  -1.061     0.7536E-3  -1.015     0.1011E-1  -1.061   
  11.94     0.9653E-2  -1.059     0.7480E-3  -1.015     0.9653E-2  -1.059   
  11.95     0.9229E-2  -1.058     0.7426E-3  -1.015     0.9229E-2  -1.058   
  11.97     0.8832E-2  -1.057     0.7374E-3  -1.015     0.8832E-2  -1.057   
  11.98     0.8460E-2  -1.055     0.7325E-3  -1.015     0.8460E-2  -1.055   
  12.00     0.8112E-2  -1.054     0.7277E-3  -1.015     0.8112E-2  -1.054   
# 
# 04/03/2015 at 11:17 YAMBO @ anomaly [start]
# 04/03/2015 at 11:18                 [end]
#  
# Timing   [Min/Max/Average]: 47s/47s/47s
#
# .-Input file : Inputs/03_alda_rspace_cpl
# | optics                       # [R OPT] Optics
# | bse                          # [R BSE] Bethe Salpeter Equation.
# | bsk                          # [R BSK] Bethe Salpeter Equation kernel
# | bss                          # [R BSS] Bethe Salpeter Equation solver
# | tddft                        # [R   K] Use TDDFT kernel
# | BoseTemp= 0.000000     eV    # Bosonic Temperature
# | BS_CPU= ""                   # [PARALLEL] CPUs for each role
# | BS_ROLEs= ""                 # [PARALLEL] CPUs roles (k,eh,t)
# | BS_nCPU_invert= 1            # [PARALLEL] CPUs for matrix inversion
# | BS_nCPU_diago= 1             # [PARALLEL] CPUs for matrix diagonalization
# | X_Threads=0                  # [OPENMP/X] Number of threads for response functions
# | DIP_Threads=0                # [OPENMP/X] Number of threads for dipoles
# | BSEmod= "xc_coupling"        # [BSE] resonant/causal/x_coupling/xc_coupling
# | BSKmod= "ALDA"               # [BSE] IP/Hartree/HF/ALDA/SEX
# | BSSmod= "h"                  # [BSS] (h)aydock/(d)iagonalization/(i)nversion/(t)ddft`
# | BSENGexx=  50301       RL    # [BSK] Exchange components
# | % BEnRange
# |   6.00000 | 12.00000 | eV    # [BSS] Energy range
# | %
# | % BDmRange
# |   0.10000 |  0.10000 | eV    # [BSS] Damping range
# | %
# | BEnSteps=  400               # [BSS] Energy steps
# | % BLongDir
# | 0.1000E-4 | 0.000    | 0.000    |        # [BSS] [cc] Electric Field
# | %
# | % BSEBands
# |    1 |  40 |                 # [BSK] Bands range
# | %
# | BSHayTrs=0.1000E-2           # [BSS] [o/o] Haydock treshold. Strict(>0)/Average(<0)
