#  __  __   ________   ___ __ __    _______   ______        
# /_/\/_/\ /_______/\ /__//_//_/\ /_______/\ /_____/\       
# \ \ \ \ \\::: _  \ \\::\| \| \ \\::: _  \ \\:::_ \ \      
#  \:\_\ \ \\::(_)  \ \\:.      \ \\::(_)  \/_\:\ \ \ \     
#   \::::_\/ \:: __  \ \\:.\-/\  \ \\::  _  \ \\:\ \ \ \    
#     \::\ \  \:.\ \  \ \\. \  \  \ \\::(_)  \ \\:\_\ \ \   
#      \__\/   \__\/\__\/ \__\/ \__\/ \_______\/ \_____\/   
#                                                           
#             GPL Version 4.0.0 Revision 4281               
#                    MPI+OpenMP Build                       
#                http://www.yambo-code.org                  
#
# EELS @ Q(1)  [q->0 direction]:0.1000E-4  0.000     0.000   
#
#
# - Energies      are Teter 93(XC)+Scissor
# - Wavefunctions are Teter 93(XC)
#
# - The Green`s function is resonant -
# - Using the Length Gauge -
# - [r,Vnl] *is* included -
#
#   BSK|Identifier              :798
#      |Dimension               :69
#      |Bands                   :1 - 70
#      |Exchange           [res]: yes
#      |Correlation        [res]: yes
#      |Kernel`s coupling       : no
#      |Exchange           [cpl]: no
#      |W interaction is bare   : no
#      |Correlation        [cpl]: no
#      |ALDA kernel in R-space  : no
#      |RL vectors    [exchange]:437
#      |RL vectors [correlation]:619
#      |E/h energy range    [ev]:-1.000000 - -1.000000
#      |Coupling range     [o/o]: 100.0000 -  100.0000
#    W |Interaction is diagonal : no
#      |Matrix size             :1503
#      |Bands                   :1 - 250
#      |e/h energy range    [ev]:-1.000000 - -1.000000
#      |Poles              [o/o]: 100.0000
#      |Rl vectors in the sum   :9939
#      |[r,Vnl] included        : yes
#      |Field direction         :0.1000E-4  0.000000  0.000000
#      |Coulomb Cutoff          :none
#      |xc-Kernel               :none
#   RIM|RL components      [col]:0
#      |Random points      [col]:0
#
#  E/ev[1]    alpha /Im[2alpha /Re[3alpha0/Im[4alpha0/Re[5]
#
  0.000     0.1083E-7   17.85     -.3076E-7   10.53   
 0.2002E-1  0.8056E-3   17.85     0.1706E-3   10.53   
 0.4004E-1  0.1611E-2   17.85     0.3413E-3   10.53   
 0.6006E-1  0.2417E-2   17.85     0.5120E-3   10.53   
 0.8008E-1  0.3223E-2   17.85     0.6826E-3   10.54   
 0.1001     0.4029E-2   17.85     0.8534E-3   10.53   
 0.1201     0.4835E-2   17.85     0.1024E-2   10.53   
 0.1401     0.5642E-2   17.85     0.1195E-2   10.53   
 0.1602     0.6449E-2   17.85     0.1366E-2   10.53   
 0.1802     0.7256E-2   17.86     0.1536E-2   10.53   
 0.2002     0.8063E-2   17.86     0.1707E-2   10.53   
 0.2202     0.8871E-2   17.86     0.1878E-2   10.53   
 0.2402     0.9680E-2   17.86     0.2049E-2   10.53   
 0.2603     0.1049E-1   17.86     0.2220E-2   10.54   
 0.2803     0.1130E-1   17.86     0.2391E-2   10.53   
 0.3003     0.1211E-1   17.87     0.2562E-2   10.53   
 0.3203     0.1292E-1   17.87     0.2733E-2   10.54   
 0.3403     0.1373E-1   17.87     0.2904E-2   10.53   
 0.3604     0.1454E-1   17.88     0.3075E-2   10.54   
 0.3804     0.1536E-1   17.88     0.3246E-2   10.53   
 0.4004     0.1617E-1   17.88     0.3418E-2   10.53   
 0.4204     0.1699E-1   17.89     0.3589E-2   10.53   
 0.4404     0.1780E-1   17.89     0.3760E-2   10.54   
 0.4605     0.1862E-1   17.89     0.3932E-2   10.54   
 0.4805     0.1944E-1   17.89     0.4103E-2   10.54   
 0.5005     0.2025E-1   17.90     0.4275E-2   10.55   
 0.5205     0.2107E-1   17.90     0.4447E-2   10.54   
 0.5405     0.2190E-1   17.91     0.4619E-2   10.55   
 0.5606     0.2272E-1   17.91     0.4791E-2   10.55   
 0.5806     0.2354E-1   17.92     0.4963E-2   10.55   
 0.6006     0.2437E-1   17.92     0.5135E-2   10.55   
 0.6206     0.2519E-1   17.92     0.5307E-2   10.55   
 0.6406     0.2602E-1   17.93     0.5479E-2   10.55   
 0.6607     0.2685E-1   17.94     0.5652E-2   10.55   
 0.6807     0.2768E-1   17.94     0.5824E-2   10.56   
 0.7007     0.2851E-1   17.95     0.5997E-2   10.56   
 0.7207     0.2934E-1   17.95     0.6169E-2   10.56   
 0.7407     0.3018E-1   17.96     0.6342E-2   10.56   
 0.7608     0.3102E-1   17.97     0.6515E-2   10.56   
 0.7808     0.3185E-1   17.97     0.6688E-2   10.56   
 0.8008     0.3269E-1   17.98     0.6862E-2   10.56   
 0.8208     0.3354E-1   17.99     0.7035E-2   10.56   
 0.8408     0.3438E-1   17.99     0.7209E-2   10.56   
 0.8609     0.3523E-1   18.00     0.7382E-2   10.57   
 0.8809     0.3607E-1   18.00     0.7556E-2   10.57   
 0.9009     0.3692E-1   18.01     0.7730E-2   10.57   
 0.9209     0.3778E-1   18.02     0.7904E-2   10.57   
 0.9409     0.3863E-1   18.03     0.8078E-2   10.57   
 0.9610     0.3949E-1   18.03     0.8253E-2   10.57   
 0.9810     0.4034E-1   18.04     0.8427E-2   10.57   
  1.001     0.4121E-1   18.05     0.8602E-2   10.57   
  1.021     0.4207E-1   18.06     0.8777E-2   10.58   
  1.041     0.4293E-1   18.07     0.8952E-2   10.58   
  1.061     0.4380E-1   18.08     0.9127E-2   10.59   
  1.081     0.4467E-1   18.09     0.9303E-2   10.59   
  1.101     0.4554E-1   18.10     0.9478E-2   10.59   
  1.121     0.4642E-1   18.10     0.9654E-2   10.59   
  1.141     0.4730E-1   18.12     0.9830E-2   10.59   
  1.161     0.4818E-1   18.13     0.1001E-1   10.59   
  1.181     0.4906E-1   18.13     0.1018E-1   10.59   
  1.201     0.4995E-1   18.15     0.1036E-1   10.59   
  1.221     0.5084E-1   18.16     0.1054E-1   10.59   
  1.241     0.5173E-1   18.16     0.1071E-1   10.60   
  1.261     0.5262E-1   18.18     0.1089E-1   10.60   
  1.281     0.5352E-1   18.18     0.1107E-1   10.60   
  1.301     0.5442E-1   18.19     0.1125E-1   10.60   
  1.321     0.5532E-1   18.21     0.1142E-1   10.60   
  1.341     0.5623E-1   18.22     0.1160E-1   10.61   
  1.361     0.5714E-1   18.23     0.1178E-1   10.61   
  1.381     0.5806E-1   18.24     0.1196E-1   10.61   
  1.401     0.5897E-1   18.25     0.1214E-1   10.61   
  1.421     0.5989E-1   18.26     0.1232E-1   10.62   
  1.441     0.6082E-1   18.27     0.1250E-1   10.62   
  1.461     0.6174E-1   18.29     0.1267E-1   10.63   
  1.481     0.6268E-1   18.30     0.1285E-1   10.63   
  1.502     0.6361E-1   18.31     0.1303E-1   10.63   
  1.522     0.6455E-1   18.32     0.1321E-1   10.64   
  1.542     0.6549E-1   18.34     0.1340E-1   10.64   
  1.562     0.6644E-1   18.35     0.1358E-1   10.64   
  1.582     0.6739E-1   18.37     0.1376E-1   10.64   
  1.602     0.6834E-1   18.38     0.1394E-1   10.65   
  1.622     0.6930E-1   18.39     0.1412E-1   10.65   
  1.642     0.7026E-1   18.41     0.1430E-1   10.66   
  1.662     0.7123E-1   18.42     0.1448E-1   10.65   
  1.682     0.7220E-1   18.44     0.1467E-1   10.66   
  1.702     0.7317E-1   18.45     0.1485E-1   10.66   
  1.722     0.7415E-1   18.47     0.1503E-1   10.66   
  1.742     0.7513E-1   18.48     0.1522E-1   10.66   
  1.762     0.7612E-1   18.50     0.1540E-1   10.67   
  1.782     0.7711E-1   18.51     0.1558E-1   10.67   
  1.802     0.7811E-1   18.53     0.1577E-1   10.67   
  1.822     0.7911E-1   18.54     0.1595E-1   10.68   
  1.842     0.8012E-1   18.56     0.1614E-1   10.68   
  1.862     0.8113E-1   18.57     0.1632E-1   10.68   
  1.882     0.8215E-1   18.59     0.1651E-1   10.69   
  1.902     0.8317E-1   18.61     0.1669E-1   10.69   
  1.922     0.8420E-1   18.62     0.1688E-1   10.70   
  1.942     0.8523E-1   18.64     0.1707E-1   10.70   
  1.962     0.8627E-1   18.65     0.1725E-1   10.70   
  1.982     0.8731E-1   18.67     0.1744E-1   10.70   
  2.002     0.8836E-1   18.69     0.1763E-1   10.70   
  2.022     0.8941E-1   18.71     0.1782E-1   10.71   
  2.042     0.9047E-1   18.72     0.1801E-1   10.71   
  2.062     0.9153E-1   18.75     0.1819E-1   10.72   
  2.082     0.9260E-1   18.76     0.1838E-1   10.71   
  2.102     0.9368E-1   18.78     0.1857E-1   10.72   
  2.122     0.9476E-1   18.80     0.1876E-1   10.73   
   2.14214    0.09585   18.82059    0.01895   10.72398
   2.16216    0.09694   18.83682    0.01914   10.73620
   2.18218    0.09804   18.85928    0.01933   10.73591
   2.20220    0.09915   18.88530    0.01953   10.74280
   2.22222    0.10026   18.89678    0.01972   10.74702
   2.24224    0.10138   18.91983    0.01991   10.76170
   2.26226    0.10251   18.94421    0.02010   10.75221
   2.28228    0.10364   18.95992    0.02030   10.75762
   2.30230    0.10478   18.98446    0.02049   10.76259
   2.32232    0.10593   19.00113    0.02068   10.76740
   2.34234    0.10708   19.02270    0.02088   10.77363
   2.36236    0.10824   19.04345    0.02107   10.77378
   2.38238    0.10940   19.06709    0.02127   10.77585
   2.40240    0.11058   19.08466    0.02146   10.77948
   2.42242    0.11176   19.11023    0.02166   10.79068
   2.44244    0.11295   19.13542    0.02186   10.78823
   2.46246    0.11414   19.15595    0.02205   10.79394
   2.48248    0.11535   19.17819    0.02225   10.79757
   2.50250    0.11656   19.20049    0.02245   10.80557
   2.52252    0.11778   19.22680    0.02265   10.81476
   2.54254    0.11901   19.25037    0.02285   10.81417
   2.56256    0.12024   19.27579    0.02304   10.82306
   2.58258    0.12149   19.29313    0.02324   10.82655
   2.60260    0.12274   19.32263    0.02344   10.83411
   2.62262    0.12400   19.34887    0.02365   10.83047
   2.64264    0.12527   19.37503    0.02385   10.83981
   2.66266    0.12654   19.39585    0.02405   10.84330
   2.68268    0.12783   19.42261    0.02425   10.84796
   2.70270    0.12912   19.45203    0.02445   10.84982
   2.72272    0.13043   19.47686    0.02466   10.85234
   2.74274    0.13174   19.49887    0.02486   10.85960
   2.76276    0.13306   19.52496    0.02506   10.86583
   2.78278    0.13439   19.55171    0.02527   10.87227
   2.80280    0.13574   19.57854    0.02548   10.87361
   2.82282    0.13709   19.60381    0.02568   10.87694
   2.84284    0.13845   19.63094    0.02589   10.88569
   2.86286    0.13982   19.66095    0.02609   10.88858
   2.88288    0.14120   19.69253    0.02630   10.88962
   2.90290    0.14259   19.71424    0.02651   10.90036
   2.92292    0.14399   19.74581    0.02672   10.90229
   2.94294    0.14540   19.77583    0.02693   10.91407
   2.96296    0.14682   19.80110    0.02714   10.91304
   2.98298    0.14826   19.83697    0.02735   10.92104
   3.00300    0.14970   19.86595    0.02756   10.92964
   3.02302    0.15115   19.89152    0.02777   10.93171
   3.04304    0.15262   19.92754    0.02798   10.94579
   3.06306    0.15410   19.95792    0.02820   10.94535
   3.08308    0.15559   19.98608    0.02841   10.95802
   3.10310    0.15709   20.01832    0.02862   10.95936
   3.12312    0.15860   20.05190    0.02884   10.96691
   3.14314    0.16012   20.08006    0.02905   10.97129
   3.16316    0.16166   20.11259    0.02927   10.97825
   3.18318    0.16321   20.15039    0.02949   10.98656
   3.20320    0.16477   20.18337    0.02970   10.98529
   3.22322    0.16634   20.21131    0.02992   10.99093
   3.24324    0.16793   20.24837    0.03014   11.00056
   3.26326    0.16953   20.27942    0.03036   11.00130
   3.28328    0.17114   20.31529    0.03058   11.01094
   3.30330    0.17277   20.34961    0.03080   11.01805
   3.32332    0.17441   20.38585    0.03102   11.02183
   3.34334    0.17607   20.41571    0.03124   11.02606
   3.36336    0.17774   20.45381    0.03147   11.03480
   3.38338    0.17942   20.49227    0.03169   11.03947
   3.40340    0.18112   20.52407    0.03191   11.05007
   3.42342    0.18283   20.55934    0.03214   11.05400
   3.44344    0.18456   20.59403    0.03236   11.06245
   3.46346    0.18630   20.63924    0.03259   11.06333
   3.48348    0.18805   20.67474    0.03282   11.06897
   3.50350    0.18983   20.70757    0.03304   11.08179
   3.52352    0.19161   20.74818    0.03327   11.08587
   3.54354    0.19342   20.78946    0.03350   11.09246
   3.56356    0.19524   20.83015    0.03373   11.09809
   3.58358    0.19708   20.86498    0.03396   11.10758
   3.60360    0.19893   20.90322    0.03419   11.10454
   3.62362    0.20080   20.94591    0.03443   11.12374
   3.64364    0.20269   20.98675    0.03466   11.12678
   3.66366    0.20459   21.02625    0.03489   11.13463
   3.68368    0.20652   21.06353    0.03513   11.14063
   3.70370    0.20846   21.10377    0.03536   11.14923
   3.72372    0.21042   21.15061    0.03560   11.15257
   3.74374    0.21240   21.19285    0.03584   11.16524
   3.76376    0.21439   21.23554    0.03607   11.17295
   3.78378    0.21641   21.27638    0.03631   11.17524
   3.80380    0.21844   21.31944    0.03655   11.18384
   3.82382    0.22050   21.36198    0.03679   11.18866
   3.84384    0.22257   21.40719    0.03703   11.19437
   3.86386    0.22467   21.45632    0.03728   11.20771
   3.88388    0.22678   21.49553    0.03752   11.21082
   3.90390    0.22892   21.54304    0.03776   11.22023
   3.92392    0.23108   21.59076    0.03801   11.23075
   3.94394    0.23325   21.63582    0.03825   11.23424
   3.96396    0.23545   21.68459    0.03850   11.24061
   3.98398    0.23768   21.73084    0.03875   11.25188
   4.00400    0.23993   21.77219    0.03899   11.25914
   4.02402    0.24219   21.82400    0.03924   11.26381
   4.04404    0.24448   21.87780    0.03949   11.27003
   4.06406    0.24680   21.92753    0.03974   11.27982
   4.08408    0.24914   21.97207    0.04000   11.28664
   4.10410    0.25150   22.02514    0.04025   11.29627
   4.12412    0.25389   22.07605    0.04050   11.30887
   4.14414    0.25630   22.12437    0.04076   11.31776
   4.16416    0.25874   22.17796    0.04101   11.32814
   4.18418    0.26120   22.22976    0.04127   11.33088
   4.20420    0.26369   22.28179    0.04153   11.34222
   4.22422    0.26621   22.33582    0.04179   11.34630
   4.24424    0.26875   22.39058    0.04205   11.35215
   4.26426    0.27132   22.44587    0.04231   11.36319
   4.28428    0.27392   22.50064    0.04257   11.37513
   4.30430    0.27655   22.55363    0.04283   11.37631
   4.32432    0.27921   22.60677    0.04310   11.39158
   4.34434    0.28190   22.66139    0.04336   11.39706
   4.36436    0.28461   22.71482    0.04363   11.40307
   4.38438    0.28736   22.77308    0.04389   11.41663
   4.40440    0.29014   22.82881    0.04416   11.42560
   4.42442    0.29295   22.88765    0.04443   11.43330
   4.44444    0.29579   22.94850    0.04470   11.43708
   4.46446    0.29866   23.00831    0.04497   11.45487
   4.48448    0.30157   23.06797    0.04525   11.45620
   4.50450    0.30450   23.13141    0.04552   11.46739
   4.52452    0.30748   23.19248    0.04579   11.47785
   4.54454    0.31049   23.25473    0.04607   11.47992
   4.56456    0.31353   23.31795    0.04635   11.49415
   4.58458    0.31661   23.37917    0.04663   11.50564
   4.60460    0.31972   23.44283    0.04690   11.51164
   4.62462    0.32288   23.50590    0.04719   11.52409
   4.64464    0.32607   23.56749    0.04747   11.53128
   4.66466    0.32930   23.63330    0.04775   11.54477
   4.68468    0.33256   23.70074    0.04803   11.55144
   4.70470    0.33587   23.76989    0.04832   11.56063
   4.72472    0.33922   23.83555    0.04861   11.56908
   4.74474    0.34260   23.90396    0.04889   11.58057
   4.76476    0.34603   23.97822    0.04918   11.59479
   4.78478    0.34950   24.04655    0.04947   11.59568
   4.80480    0.35302   24.11636    0.04976   11.61051
   4.82482    0.35658   24.18833    0.05006   11.61984
   4.84484    0.36019   24.25577    0.05035   11.62622
   4.86486    0.36384   24.32603    0.05065   11.63845
   4.88488    0.36753   24.40251    0.05094   11.64734
   4.90490    0.37128   24.47462    0.05124   11.66142
   4.92492    0.37507   24.54770    0.05154   11.67380
   4.94494    0.37891   24.62448    0.05184   11.68692
   4.96496    0.38280   24.70118    0.05214   11.69129
   4.98498    0.38674   24.77893    0.05245   11.70278
   5.00500    0.39073   24.85437    0.05275   11.71686
   5.02502    0.39478   24.93286    0.05306   11.72412
   5.04504    0.39888   25.01201    0.05337   11.73042
   5.06506    0.40303   25.09042    0.05368   11.74243
   5.08508    0.40724   25.17239    0.05399   11.75569
   5.10510    0.41151   25.25502    0.05430   11.76614
   5.12512    0.41583   25.33840    0.05461   11.77370
   5.14514    0.42021   25.42659    0.05493   11.78185
   5.16516    0.42465   25.50864    0.05524   11.80209
   5.18518    0.42916   25.59438    0.05556   11.80876
   5.20520    0.43372   25.68295    0.05588   11.81839
   5.22522    0.43835   25.77099    0.05620   11.83425
   5.24524    0.44304   25.85852    0.05652   11.83833
   5.26526    0.44780   25.94894    0.05685   11.85471
   5.28528    0.45263   26.03587    0.05717   11.87071
   5.30531    0.45753   26.12251    0.05750   11.86886
   5.32533    0.46249   26.21700    0.05783   11.88746
   5.34535    0.46753   26.30816    0.05816   11.90140
   5.36537    0.47264   26.40332    0.05849   11.91451
   5.38539    0.47783   26.49663    0.05882   11.92378
   5.40541    0.48308   26.59475    0.05916   11.93452
   5.42543    0.48842   26.69110    0.05949   11.95342
   5.44545    0.49384   26.78744    0.05983   11.95654
   5.46547    0.49933   26.88638    0.06017   11.98255
   5.48549    0.50491   26.98755    0.06051   11.98018
   5.50551    0.51057   27.08767    0.06086   12.00189
   5.52553    0.51632   27.19054    0.06120   12.00990
   5.54555    0.52216   27.28948    0.06155   12.02368
   5.56557    0.52808   27.39472    0.06190   12.03324
   5.58559    0.53410   27.50203    0.06225   12.04273
   5.60561    0.54020   27.60891    0.06260   12.05014
   5.62563    0.54640   27.72156    0.06295   12.06585
   5.64565    0.55270   27.83250    0.06331   12.07801
   5.66567    0.55910   27.94493    0.06367   12.08401
   5.68569    0.56559   28.05884    0.06403   12.10943
   5.70571    0.57220   28.17068    0.06439   12.12033
   5.72573    0.57891   28.28414    0.06475   12.13092
   5.74575    0.58572   28.40087    0.06512   12.14508
   5.76577    0.59265   28.51789    0.06548   12.16235
   5.78579    0.59969   28.63795    0.06585   12.16813
   5.80581    0.60684   28.75846    0.06622   12.18354
   5.82583    0.61411   28.87941    0.06660   12.19755
   5.84585    0.62150   29.00385    0.06697   12.20785
   5.86587    0.62902   29.13021    0.06735   12.22631
   5.88589    0.63666   29.25672    0.06772   12.23876
   5.90591    0.64443   29.38619    0.06811   12.24298
   5.92593    0.65233   29.51278    0.06849   12.26447
   5.94595    0.66037   29.64447    0.06887   12.27744
   5.96597    0.66854   29.77832    0.06926   12.28760
   5.98599    0.67686   29.91039    0.06965   12.30464
   6.00601    0.68531   30.04846    0.07004   12.31346
   6.02603    0.69392   30.18475    0.07043   12.32524
   6.04605    0.70268   30.32430    0.07083   12.34703
   6.06607    0.71159   30.46697    0.07122   12.36156
   6.08609    0.72067   30.60986    0.07163   12.36942
   6.10611    0.72990   30.75512    0.07203   12.39224
   6.12613    0.73931   30.90067    0.07243   12.41010
   6.14615    0.74889   31.04446    0.07284   12.42070
   6.16617    0.75863   31.19483    0.07324   12.43671
   6.18619    0.76856   31.34713    0.07366   12.44975
   6.20621    0.77868   31.49891    0.07407   12.46576
   6.22623    0.78898   31.65381    0.07448   12.47984
   6.24625    0.79947   31.81107    0.07490   12.48755
   6.26627    0.81016   31.97471    0.07532   12.50875
   6.28629    0.82105   32.13895    0.07574   12.52149
   6.30631    0.83216   32.30474    0.07617   12.53632
   6.32633    0.84347   32.47267    0.07660   12.55069
   6.34635    0.85501   32.64187    0.07703   12.56277
   6.36637    0.86677   32.81322    0.07746   12.58138
   6.38639    0.87876   32.98983    0.07789   12.59501
   6.40641    0.89099   33.16851    0.07833   12.61621
   6.42643    0.90347   33.34290    0.07877   12.62696
   6.44645    0.91619   33.52707    0.07921   12.64356
   6.46647    0.92917   33.70835    0.07966   12.66586
   6.48649    0.94241   33.89919    0.08011   12.67491
   6.50651    0.95593   34.08454    0.08056   12.69084
   6.52653    0.96973   34.27568    0.08101   12.70537
   6.54655    0.98382   34.47059    0.08146   12.72730
   6.56657    0.99819   34.67003    0.08192   12.74591
   6.58659    1.01287   34.86946    0.08238   12.75562
   6.60661    1.02786   35.07460    0.08285   12.77073
   6.62663    1.04318   35.27604    0.08331   12.79919
   6.64665    1.05884   35.48059    0.08378   12.81150
   6.66667    1.07481   35.69893    0.08425   12.82328
   6.68669    1.09114   35.91748    0.08473   12.84885
   6.70671    1.10783   36.13501    0.08521   12.85626
   6.72673    1.12489   36.35971    0.08569   12.87279
   6.74675    1.14234   36.58635    0.08617   12.90080
   6.76677    1.16017   36.81647    0.08666   12.90925
   6.78679    1.17841   37.05274    0.08715   12.92793
   6.80681    1.19707   37.29219    0.08764   12.94682
   6.82683    1.21617   37.52995    0.08814   12.96120
   6.84685    1.23570   37.77615    0.08864   12.97906
   6.86687    1.25570   38.02309    0.08914   12.99818
   6.88689    1.27617   38.27381    0.08964   13.01286
   6.90691    1.29712   38.53054    0.09015   13.03257
   6.92693    1.31858   38.79363    0.09066   13.05058
   6.94695    1.34056   39.05740    0.09118   13.06815
   6.96697    1.36308   39.32576    0.09169   13.08356
   6.98699    1.38614   39.60316    0.09222   13.10083
   7.00701    1.40978   39.88071    0.09274   13.11995
   7.02703    1.43402   40.16197    0.09327   13.13507
   7.04705    1.45887   40.45012    0.09380   13.15827
   7.06707    1.48435   40.74308    0.09433   13.17746
   7.08709    1.51049   41.03961    0.09487   13.19992
   7.10711    1.53730   41.34391    0.09541   13.21296
   7.12713    1.56481   41.65274    0.09596   13.23534
   7.14715    1.59306   41.96631    0.09651   13.25402
   7.16717    1.62204   42.28818    0.09706   13.26988
   7.18719    1.65181   42.61546    0.09761   13.28715
   7.20721    1.68240   42.94200    0.09817   13.31146
   7.22723    1.71380   43.28402    0.09874   13.32806
   7.24725    1.74608   43.62954    0.09930   13.34570
   7.26727    1.77926   43.98127    0.09987   13.37067
   7.28729    1.81338   44.33783    0.10045   13.39298
   7.30731    1.84845   44.70446    0.10103   13.41662
   7.32733    1.88454   45.07547    0.10161   13.43552
   7.34735    1.92168   45.45314    0.10219   13.45724
   7.36737    1.95989   45.84149    0.10278   13.47295
   7.38739    1.99924   46.23340    0.10338   13.49266
   7.40741    2.03977   46.63242    0.10397   13.51890
   7.42743    2.08150   47.04604    0.10458   13.53372
   7.44745    2.12453   47.46085    0.10518   13.55773
   7.46747    2.16886   47.88744    0.10579   13.57604
   7.48749    2.21457   48.32463    0.10641   13.59405
   7.50751    2.26170   48.77567    0.10703   13.62095
   7.52753    2.31036   49.22279    0.10765   13.63696
   7.54755    2.36056   49.68888    0.10828   13.66216
   7.56757    2.41239   50.16217    0.10891   13.68335
   7.58759    2.46591   50.64886    0.10954   13.70670
   7.60761    2.52122   51.14156    0.11018   13.72389
   7.62763    2.57835   51.65368    0.11083   13.74509
   7.64765    2.63745   52.16912    0.11148   13.77236
   7.66767    2.69857   52.69703    0.11213   13.79511
   7.68769    2.76177   53.24613    0.11279   13.81816
   7.70771    2.82722   53.80197    0.11345   13.84321
   7.72773    2.89500   54.36811    0.11412   13.85870
   7.74775    2.96517   54.95493    0.11479   13.88842
   7.76777    3.03793   55.55006    0.11547   13.90702
   7.78779    3.11338   56.15733    0.11615   13.93482
   7.80781    3.19161   56.78543    0.11684   13.95438
   7.82783    3.27278   57.42850    0.11753   13.97565
   7.84785    3.35710   58.08269    0.11823   14.00218
   7.86787    3.44463   58.75978    0.11893   14.01760
   7.88789    3.53562   59.45110    0.11964   14.05295
   7.90791    3.63024   60.15762    0.12035   14.07044
   7.92793    3.72864   60.88725    0.12107   14.07971
   7.94795    3.83104   61.63816    0.12179   14.11869
   7.96797    3.93771   62.40522    0.12252   14.13351
   7.98799    4.04884   63.19377    0.12326   14.15812
   8.00801    4.16466   64.00849    0.12400   14.18880
   8.02803    4.28549   64.84655    0.12474   14.21385
   8.04805    4.41161   65.70781    0.12549   14.24186
   8.06807    4.54336   66.58886    0.12625   14.26802
   8.08809    4.68101   67.50140    0.12701   14.29396
   8.10811    4.82496   68.44181    0.12777   14.31746
   8.12813    4.97558   69.41261    0.12855   14.34658
   8.14815    5.13332   70.40965    0.12932   14.38260
   8.16817    5.29862   71.43958    0.13011   14.39594
   8.18819    5.47199   72.49924    0.13090   14.43159
   8.20821    5.65389   73.59810    0.13170   14.46020
   8.22823    5.84497   74.73195    0.13250   14.47124
   8.24825    6.04587   75.89870    0.13331   14.50481
   8.26827    6.25715   77.11214    0.13413   14.52134
   8.28829    6.47957   78.37153    0.13495   14.55432
   8.30831    6.71406   79.66879    0.13578   14.57285
   8.32833    6.96138   81.01385    0.13661   14.60939
   8.34835    7.22255   82.40783    0.13745   14.63429
   8.36837    7.49847   83.86080    0.13830   14.66030
   8.38839    7.79056   85.35728    0.13916   14.68706
   8.40841    8.09984   86.91756    0.14002   14.72152
   8.42843    8.42782   88.53670    0.14089   14.74961
   8.44845    8.77589   90.22498    0.14176   14.77592
   8.46847    9.14595   91.97529    0.14264   14.80415
   8.48849    9.53962   93.80579    0.14353   14.83054
   8.50851    9.95914   95.71047    0.14443   14.85818
   8.52853   10.40676   97.69572    0.14533   14.89242
   8.54855   10.88497   99.77375    0.14624   14.91806
    8.5686    11.3968   101.9406     0.1472    14.9459
    8.5886    11.9451   104.2115     0.1481    14.9742
    8.6086    12.5339   106.5826     0.1490    15.0009
    8.6286    13.1668   109.0753     0.1500    15.0393
    8.6486    13.8485   111.6893     0.1509    15.0623
    8.6687    14.5843   114.4314     0.1519    15.0989
    8.6887    15.3795   117.3238     0.1528    15.1249
    8.7087    16.2411   120.3671     0.1538    15.1544
    8.7287    17.1765   123.5760     0.1548    15.1903
    8.7487    18.1945   126.9606     0.1558    15.2140
    8.7688    19.3046   130.5456     0.1568    15.2445
    8.7888    20.5186   134.3372     0.1578    15.2792
    8.8088    21.8497   138.3564     0.1588    15.3125
    8.8288    23.3127   142.6319     0.1598    15.3353
    8.8488    24.9262   147.1799     0.1608    15.3728
    8.8689    26.7110   152.0240     0.1619    15.4054
    8.8889    28.6920   157.1985     0.1629    15.4348
    8.9089    30.8987   162.7302     0.1640    15.4663
  8.929      33.37      168.7     0.1651      15.50   
  8.949      36.14      175.0     0.1661      15.53   
  8.969      39.26      181.9     0.1672      15.56   
  8.989      42.80      189.3     0.1683      15.62   
  9.009      46.83      197.3     0.1694      15.64   
  9.029      51.44      206.0     0.1705      15.68   
  9.049      56.75      215.4     0.1717      15.71   
  9.069      62.90      225.6     0.1728      15.74   
  9.089      70.08      236.8     0.1739      15.78   
  9.109      78.51      249.0     0.1751      15.81   
  9.129      88.49      262.4     0.1763      15.84   
  9.149      100.4      277.0     0.1774      15.88   
  9.169      114.8      292.9     0.1786      15.91   
  9.189      132.2      310.3     0.1798      15.95   
  9.209      153.7      329.0     0.1810      15.98   
  9.229      180.4      348.8     0.1822      16.02   
  9.249      213.8      369.4     0.1835      16.07   
  9.269      256.0      389.6     0.1847      16.10   
  9.289      309.5      407.6     0.1860      16.14   
  9.309      376.9      420.0     0.1872      16.17   
  9.329      459.8      420.9     0.1885      16.21   
  9.349      557.1      400.5     0.1898      16.25   
  9.369      662.4      345.2     0.1911      16.28   
  9.389      760.0      244.0     0.1924      16.32   
  9.409      823.6      98.85     0.1937      16.36   
  9.429      828.6     -66.91     0.1950      16.40   
  9.449      772.4     -217.0     0.1964      16.43   
  9.469      676.6     -325.1     0.1977      16.48   
  9.489      569.1     -386.7     0.1991      16.52   
  9.510      469.1     -411.9     0.2005      16.55   
  9.530      384.3     -413.6     0.2019      16.60   
  9.550      315.6     -402.1     0.2033      16.64   
  9.570      261.1     -384.1     0.2047      16.67   
  9.590      218.0     -363.6     0.2062      16.72   
  9.610      183.8     -342.8     0.2076      16.76   
  9.630      156.6     -322.6     0.2091      16.80   
  9.650      134.6     -303.6     0.2106      16.84   
  9.670      116.7     -286.0     0.2121      16.89   
  9.690      102.0     -269.9     0.2136      16.92   
  9.710      89.82     -255.1     0.2151      16.97   
  9.730      79.62     -241.6     0.2167      17.02   
  9.750      71.02     -229.2     0.2182      17.06   
    9.7698    63.7094  -217.9214     0.2198    17.1004
    9.7898    57.4438  -207.5574     0.2214    17.1384
    9.8098    52.0400  -198.0363     0.2230    17.1888
    9.8298    47.3510  -189.2829     0.2246    17.2289
    9.8498    43.2573  -181.2056     0.2262    17.2779
    9.8699    39.6638  -173.7342     0.2279    17.3192
    9.8899    36.4939  -166.8154     0.2296    17.3610
    9.9099    33.6842  -160.3845     0.2312    17.4124
    9.9299    31.1828  -154.3977     0.2329    17.4570
    9.9499    28.9469  -148.8190     0.2347    17.5079
    9.9700    26.9406  -143.6050     0.2364    17.5499
    9.9900    25.1338  -138.7240     0.2382    17.6023
   10.0100    23.5008  -134.1376     0.2399    17.6511
   10.0300    22.0208  -129.8415     0.2417    17.6939
   10.0500    20.6749  -125.7880     0.2435    17.7483
   10.0701    19.4477  -121.9654     0.2454    17.7975
   10.0901    18.3260  -118.3647     0.2472    17.8320
   10.1101    17.2977  -114.9553     0.2491    17.8971
   10.1301    16.3530  -111.7274     0.2510    17.9370
   10.1501    15.4830  -108.6643     0.2529    17.9876
   10.1702    14.6801  -105.7517     0.2548    18.0466
   10.1902    13.9379  -102.9913     0.2568    18.0969
   10.2102    13.2501  -100.3609     0.2587    18.1451
  10.23023   12.61173  -97.85802    0.26073   18.20213
  10.25025   12.01813  -95.47012    0.26274   18.25423
  10.27027   11.46523  -93.18983    0.26478   18.30144
  10.29029   10.94933  -91.00323    0.26684   18.35421
  10.31031   10.46735  -88.91800    0.26892   18.41075
  10.33033   10.01638  -86.92364    0.27103   18.45885
  10.35035    9.59370  -85.00606    0.27316   18.51288
  10.37037    9.19698  -83.15903    0.27531   18.56958
  10.39039    8.82439  -81.39783    0.27749   18.62368
  10.41041    8.47380  -79.70066    0.27969   18.67615
  10.43043    8.14367  -78.07463    0.28191   18.73255
  10.45045    7.83233  -76.50597    0.28417   18.78517
  10.47047    7.53846  -75.00015    0.28644   18.84839
  10.49049    7.26071  -73.54637    0.28874   18.90049
  10.51051    6.99798  -72.14713    0.29107   18.97201
  10.53053    6.74920  -70.79666    0.29342   19.02996
  10.55055    6.51339  -69.49391    0.29581   19.07814
  10.57057    6.28963  -68.23312    0.29821   19.14928
  10.59059    6.07714  -67.01263    0.30066   19.19812
  10.61061    5.87526  -65.83988    0.30312   19.25630
  10.63063    5.68316  -64.69751    0.30562   19.31967
  10.65065    5.50026  -63.58983    0.30814   19.38125
  10.67067    5.32603  -62.51906    0.31070   19.43847
  10.69069    5.15998  -61.48889    0.31328   19.50569
  10.71071    5.00144  -60.48022    0.31590   19.56394
  10.73073    4.85014  -59.51010    0.31854   19.63361
  10.75075    4.70553  -58.56561    0.32123   19.69134
  10.77077    4.56725  -57.64528    0.32394   19.75997
  10.79079    4.43503  -56.76364    0.32668   19.82726
  10.81081    4.30836  -55.89638    0.32946   19.89226
  10.83083    4.18699  -55.04854    0.33227   19.95659
  10.85085    4.07071  -54.23419    0.33511   20.02329
  10.87087    3.95918  -53.44090    0.33799   20.09303
  10.89089    3.85214  -52.66746    0.34091   20.15906
  10.91091    3.74934  -51.90958    0.34387   20.22473
  10.93093    3.65059  -51.17572    0.34686   20.29513
  10.95095    3.55570  -50.46380    0.34988   20.36598
  10.97097    3.46443  -49.76981    0.35295   20.43787
  10.99099    3.37662  -49.09332    0.35605   20.50628
  11.01101    3.29206  -48.42987    0.35920   20.57639
  11.03103    3.21062  -47.78227    0.36238   20.64517
  11.05105    3.13217  -47.15380    0.36561   20.71639
  11.07107    3.05657  -46.54459    0.36888   20.79265
  11.09109    2.98362  -45.94088    0.37219   20.86535
  11.11111    2.91324  -45.35421    0.37554   20.93754
  11.13113    2.84532  -44.78458    0.37893   21.01350
  11.15115    2.77972  -44.22147    0.38237   21.09458
  11.17117    2.71637  -43.67586    0.38586   21.16158
  11.19119    2.65513  -43.14032    0.38939   21.24592
  11.21121    2.59595  -42.62050    0.39297   21.31922
  11.23123    2.53873  -42.11683    0.39660   21.39815
  11.25125    2.48333  -41.61375    0.40027   21.48679
  11.27127    2.42975  -41.12951    0.40400   21.56260
  11.29129    2.37786  -40.65089    0.40777   21.64494
  11.31131    2.32762  -40.18709    0.41160   21.72832
  11.33133    2.27893  -39.72790    0.41548   21.80917
  11.35135    2.23173  -39.27507    0.41941   21.89373
  11.37137    2.18597  -38.83010    0.42340   21.97341
  11.39139    2.14162  -38.40247    0.42744   22.06197
  11.41141    2.09861  -37.98462    0.43154   22.14320
  11.43143    2.05685  -37.56693    0.43570   22.22694
  11.45145    2.01634  -37.16657    0.43991   22.31692
  11.47147    1.97699  -36.76711    0.44419   22.39696
  11.49149    1.93878  -36.37743    0.44852   22.49316
  11.51151    1.90165  -35.99086    0.45292   22.57831
  11.53153    1.86561  -35.62311    0.45738   22.67177
  11.55155    1.83055  -35.25344    0.46191   22.75877
  11.57157    1.79646  -34.88910    0.46650   22.84934
  11.59159    1.76331  -34.53203    0.47115   22.95087
  11.61161    1.73107  -34.18163    0.47587   23.04181
  11.63163    1.69969  -33.83553    0.48067   23.13749
  11.65165    1.66918  -33.50187    0.48553   23.24102
  11.67167    1.63948  -33.18052    0.49047   23.33418
  11.69169    1.61055  -32.85250    0.49548   23.43638
  11.71171    1.58238  -32.53500    0.50056   23.53525
  11.73173    1.55495  -32.22773    0.50573   23.63152
  11.75175    1.52821  -31.91898    0.51097   23.73350
  11.77177    1.50215  -31.61556    0.51629   23.83852
  11.79179    1.47675  -31.31867    0.52170   23.94057
  11.81181    1.45200  -31.02904    0.52718   24.04551
  11.83183    1.42786  -30.74222    0.53275   24.15446
  11.85185    1.40431  -30.45823    0.53841   24.26177
  11.87187    1.38135  -30.18446    0.54416   24.36946
  11.89189    1.35894  -29.91291    0.55000   24.47662
  11.91191    1.33706  -29.63840    0.55592   24.58898
  11.93193    1.31572  -29.37574    0.56195   24.69548
  11.95195    1.29488  -29.11620    0.56807   24.81109
  11.97197    1.27454  -28.86481    0.57429   24.92360
  11.99199    1.25466  -28.60408    0.58061   25.03535
  12.01201    1.23526  -28.35803    0.58704   25.15186
  12.03203    1.21631  -28.11806    0.59356   25.27311
  12.05205    1.19779  -27.87867    0.60020   25.39102
  12.07207    1.17968  -27.63573    0.60694   25.51279
  12.09209    1.16200  -27.40762    0.61380   25.63448
  12.11211    1.14472  -27.17787    0.62077   25.75565
  12.13213    1.12780  -26.94160    0.62786   25.88001
  12.15215    1.11128  -26.72445    0.63507   26.01045
  12.17217    1.09513  -26.50671    0.64240   26.13548
  12.19219    1.07931  -26.28096    0.64986   26.26266
  12.21221    1.06386  -26.06841    0.65745   26.39583
  12.23223    1.04877  -25.87260    0.66517   26.52361
  12.25225    1.03397  -25.65768    0.67302   26.65552
  12.27227    1.01949  -25.44705    0.68101   26.78863
  12.29229    1.00535  -25.25124    0.68914   26.92804
  12.31231    0.99151  -25.05366    0.69742   27.06203
  12.33233    0.97795  -24.85134    0.70584   27.20588
  12.35235    0.96469  -24.65597    0.71441   27.34625
  12.37237    0.95173  -24.46506    0.72315   27.48721
  12.39239    0.93904  -24.27489    0.73203   27.63232
  12.41241    0.92663  -24.08739    0.74108   27.78366
  12.43243    0.91451  -23.91026    0.75030   27.93211
  12.45245    0.90265  -23.72839    0.75968   28.08485
  12.47247    0.89105  -23.54637    0.76925   28.23649
  12.49249    0.87973  -23.37057    0.77899   28.38783
  12.51251    0.86867  -23.19448    0.78892   28.54294
  12.53253    0.85790  -23.02699    0.79903   28.70362
  12.55255    0.84740  -22.85149    0.80934   28.86163
  12.57257    0.83719  -22.68859    0.81985   29.02215
  12.59259    0.82729  -22.52658    0.83056   29.18987
  12.61261    0.81771  -22.35745    0.84148   29.35321
  12.63263    0.80849  -22.20123    0.85261   29.52167
  12.65265    0.79965  -22.04055    0.86397   29.69213
  12.67267    0.79126  -21.88180    0.87554   29.87022
  12.69269    0.78340  -21.72869    0.88735   30.04290
  12.71271    0.77614  -21.56920    0.89940   30.22455
  12.73273    0.76962  -21.41890    0.91169   30.40435
  12.75275    0.76395  -21.26237    0.92424   30.58555
  12.77277    0.75926  -21.12186    0.93705   30.77061
  12.79279    0.75546  -20.97659    0.95011   30.96330
  12.81281    0.75219  -20.83178    0.96345   31.15170
  12.83283    0.74851  -20.68963    0.97707   31.34728
  12.85285    0.74305  -20.55786    0.99099   31.54175
  12.87287    0.73475  -20.43128    1.00520   31.73777
  12.89289    0.72369  -20.29580    1.01971   31.94336
  12.91291    0.71107  -20.17233    1.03452   32.15332
  12.93293    0.69820  -20.03833    1.04968   32.35743
  12.95295    0.68593  -19.90449    1.06516   32.56946
  12.97297    0.67456  -19.76768    1.08100   32.77913
  12.99299    0.66412  -19.64495    1.09718   32.99509
  13.01301    0.65447  -19.51229    1.11373   33.21038
  13.03303    0.64548  -19.37740    1.13065   33.43243
  13.05305    0.63703  -19.24815    1.14795   33.66232
  13.07307    0.62904  -19.12557    1.16565   33.89266
  13.09309    0.62142  -18.99750    1.18373   34.13938
  13.11311    0.61411  -18.87551    1.20227   34.37461
  13.13313    0.60707  -18.76182    1.22123   34.62067
  13.15315    0.60025  -18.63094    1.24066   34.86205
  13.17317    0.59366  -18.51621    1.26053   35.11589
  13.19319    0.58725  -18.40564    1.28089   35.36979
  13.21321    0.58101  -18.29106    1.30176   35.62304
  13.23323    0.57492  -18.16181    1.32312   35.88621
  13.25325    0.56900  -18.05776    1.34502   36.14998
  13.27327    0.56321  -17.94555    1.36747   36.41648
  13.29329    0.55756  -17.83261    1.39049   36.68870
  13.31331    0.55203  -17.72410    1.41407   36.96899
  13.33333    0.54663  -17.61160    1.43828   37.24825
  13.35335    0.54135  -17.50088    1.46309   37.53913
  13.37337    0.53620  -17.39430    1.48856   37.82743
  13.39339    0.53116  -17.29010    1.51470   38.12366
  13.41341    0.52623  -17.18723    1.54153   38.42478
  13.43343    0.52142  -17.08377    1.56907   38.73620
  13.45345    0.51671  -16.97750    1.59736   39.04613
  13.47347    0.51212  -16.87626    1.62640   39.36904
  13.49349    0.50765  -16.77976    1.65626   39.69262
  13.51351    0.50328  -16.68090    1.68694   40.02197
  13.53353    0.49901  -16.57018    1.71848   40.35674
  13.55355    0.49487  -16.47412    1.75090   40.70433
  13.57357    0.49084  -16.37689    1.78425   41.05421
  13.59359    0.48692  -16.27728    1.81856   41.40965
  13.61361    0.48311  -16.17338    1.85385   41.77829
  13.63363    0.47944  -16.08637    1.89020   42.14855
  13.65365    0.47588  -15.98928    1.92761   42.52726
  13.67367    0.47244  -15.88790    1.96614   42.91562
  13.69369    0.46915  -15.80578    2.00582   43.31730
  13.71371    0.46597  -15.69921    2.04672   43.72292
  13.73373    0.46294  -15.60790    2.08887   44.14106
  13.75375    0.46006  -15.52267    2.13235   44.56268
  13.77377    0.45733  -15.42825    2.17721   44.99068
  13.79379    0.45476  -15.33591    2.22350   45.42802
  13.81381    0.45237  -15.24979    2.27126   45.87685
  13.83383    0.45016  -15.15997    2.32062   46.32589
  13.85385    0.44814  -15.06332    2.37155   46.79865
  13.87387    0.44635  -14.98061    2.42423   47.26741
  13.89389    0.44477  -14.89020    2.47863   47.75885
  13.91391    0.44345  -14.79237    2.53490   48.25711
  13.93393    0.44240  -14.71411    2.59312   48.76278
  13.95395    0.44166  -14.62680    2.65336   49.28275
  13.97397    0.44124  -14.53876    2.71569   49.82029
  13.99399    0.44119  -14.44612    2.78028   50.36442
  14.01401    0.44157  -14.36074    2.84720   50.92026
  14.03403    0.44240  -14.26988    2.91655   51.49344
  14.05405    0.44377  -14.17353    2.98849   52.07471
  14.07407    0.44576  -14.10579    3.06309   52.67464
  14.09409    0.44842  -14.00900    3.14051   53.29467
  14.11411    0.45189  -13.92244    3.22092   53.92529
  14.13413    0.45630  -13.83617    3.30449   54.56495
  14.15415    0.46180  -13.74324    3.39129   55.23382
  14.17417    0.46861  -13.65934    3.48162   55.90839
  14.19419    0.47695  -13.56611    3.57555   56.60993
  14.21421    0.48715  -13.47510    3.67335   57.33038
  14.23423    0.49959  -13.37875    3.77520   58.06861
  14.25425    0.51478  -13.28552    3.88136   58.82938
  14.27427    0.53334  -13.18057    3.99207   59.60585
  14.29429    0.55613  -13.08601    4.10759   60.40478
  14.31431    0.58422  -12.98625    4.22819   61.23046
  14.33433    0.61902  -12.87138    4.35414   62.08179
  14.35435    0.66246  -12.77236    4.48581   62.95847
  14.37437    0.71704  -12.66431    4.62359   63.85789
  14.39439    0.78605  -12.54484    4.76781   64.78259
  14.41441    0.87380  -12.43501    4.91885   65.74013
  14.43443    0.98557  -12.33525    5.07722   66.72508
  14.45445    1.12714  -12.24454    5.24331   67.74501
  14.47447    1.30308  -12.18184    5.41772   68.79540
  14.49449    1.51227  -12.18139    5.60095   69.88203
  14.51451    1.73953  -12.24246    5.79365   71.00439
  14.53453    1.94639  -12.39988    5.99651   72.16069
  14.55455    2.07358  -12.65304    6.21014   73.36094
  14.57457    2.07169  -12.94001    6.43540   74.60448
  14.59459    1.94078  -13.19140    6.67309   75.89684
  14.61461    1.73035  -13.34095    6.92417   77.23583
  14.63463    1.49969  -13.41344    7.18976   78.62032
  14.65465    1.28726  -13.40899    7.47089   80.05737
  14.67467    1.10799  -13.35192    7.76886   81.54672
  14.69469    0.96272  -13.26951    8.08493   83.09989
  14.71471    0.84662  -13.17509    8.42055   84.72110
  14.73473    0.75375  -13.07311    8.77759   86.40256
  14.75475    0.67903  -12.98106    9.15781   88.15390
  14.77477    0.61849  -12.87301    9.56315   89.98330
  14.79480    0.56911  -12.78911    9.99612   91.88354
  14.81481    0.52849  -12.68506   10.45884   93.88145
  14.83483    0.49478  -12.59820   10.95444   95.96593
  14.85485    0.46653  -12.51282   11.48615   98.14091
   14.8749     0.4426   -12.4237    12.0572   100.4282
   14.8949     0.4222   -12.3499    12.6721   102.8139
   14.9149     0.4046   -12.2684    13.3346   105.3363
   14.9349     0.3893   -12.1965    14.0506   107.9709
   14.9550     0.3759   -12.1236    14.8253   110.7566
   14.9750     0.3641   -12.0493    15.6659   113.6804
   14.9950     0.3536   -11.9843    16.5794   116.7735
   15.0150     0.3442   -11.9149    17.5746   120.0455
   15.0350     0.3357   -11.8538    18.6618   123.4947
   15.0551     0.3281   -11.7901    19.8521   127.1602
   15.0751     0.3211   -11.7223    21.1593   131.0447
   15.0951     0.3148   -11.6681    22.5985   135.1813
   15.1151     0.3090   -11.6045    24.1884   139.5841
   15.1351     0.3037   -11.5402    25.9509   144.2717
   15.1552     0.2988   -11.4881    27.9107   149.2865
   15.1752     0.2943   -11.4167    30.0988   154.6519
   15.1952     0.2902   -11.3635    32.5504   160.4141
   15.2152     0.2863   -11.3079    35.3096   166.6100
   15.2352     0.2828   -11.2502    38.4293   173.2882
   15.2553     0.2795   -11.1867    41.9733   180.4982
   15.2753     0.2765   -11.1326    46.0206   188.3025
   15.2953     0.2738   -11.0829    50.6685   196.7780
   15.3153     0.2713   -11.0229    56.0396   205.9827
   15.3353     0.2691   -10.9704    62.2852   216.0220
   15.3554     0.2671   -10.9184    69.6008   226.9724
   15.3754     0.2654   -10.8647    78.2333   238.9416
   15.3954     0.2640   -10.8177    88.5042   252.0349
  15.42     0.2629     -10.77      100.8      266.3   
  15.44     0.2622     -10.72      115.8      281.9   
  15.46     0.2619     -10.66      134.0      298.8   
  15.48     0.2621     -10.61      156.6      316.9   
  15.50     0.2628     -10.56      184.8      335.8   
  15.52     0.2642     -10.50      220.3      354.9   
  15.54     0.2664     -10.46      265.3      372.8   
  15.56     0.2697     -10.40      322.2      387.0   
  15.58     0.2742     -10.35      393.2      393.1   
  15.60     0.2805     -10.31      478.7      383.8   
  15.62     0.2889     -10.25      574.8      347.8   
  15.64     0.3001     -10.21      671.0      272.8   
  15.66     0.3148     -10.16      746.4      153.9   
  15.68     0.3338     -10.10      775.7      4.080   
  15.70     0.3578     -10.06      746.0     -145.6   
  15.72     0.3861     -10.02      669.2     -264.2   
  15.74     0.4164     -10.00      571.1     -339.1   
  15.76     0.4424     -9.994      473.8     -375.4   
   15.7758     0.4559    -9.9952   388.6250  -384.7777
   15.7958     0.4509   -10.0037   318.6524  -378.3231
   15.8158     0.4288   -10.0031   262.7560  -363.6003
   15.8358     0.3973    -9.9958   218.5320  -345.2111
   15.8559     0.3641    -9.9694   183.5353  -325.7564
   15.8759     0.3338    -9.9364   155.6797  -306.6018
   15.8959     0.3083    -9.9011   133.3264  -288.4191
   15.9159     0.2874    -9.8515   115.2178  -271.5000
   15.9359     0.2706    -9.8113   100.4011  -255.9052
   15.9560     0.2571    -9.7644    88.1635  -241.6086
   15.9760     0.2460    -9.7167    77.9622  -228.5279
   15.9960     0.2369    -9.6785    69.3872  -216.5855
   16.0160     0.2293    -9.6272    62.1176  -205.6401
   16.0360     0.2229    -9.5886    55.9119  -195.6370
   16.0561     0.2175    -9.5424    50.5736  -186.4361
   16.0761     0.2127    -9.4979    45.9540  -177.9787
   16.0961     0.2086    -9.4570    41.9313  -170.1806
   16.1161     0.2049    -9.4306    38.4092  -162.9741
   16.1361     0.2016    -9.3851    35.3084  -156.2871
   16.1562     0.1986    -9.3515    32.5661  -150.0801
   16.1762     0.1959    -9.3066    30.1307  -144.3202
   16.1962     0.1934    -9.2594    27.9576  -138.9399
   16.2162     0.1911    -9.2208    26.0115  -133.9197
   16.2362     0.1890    -9.1951    24.2621  -129.2132
   16.2563     0.1871    -9.1523    22.6838  -124.7849
   16.2763     0.1853    -9.1145    21.2562  -120.6376
   16.2963     0.1836    -9.0749    19.9607  -116.7412
   16.3163     0.1820    -9.0381    18.7813  -113.0564
   16.3363     0.1805    -9.0072    17.7053  -109.5796
   16.3564     0.1792    -8.9682    16.7208  -106.2837
   16.3764     0.1780    -8.9348    15.8179  -103.1594
   16.3964     0.1769    -8.8967    14.9884  -100.1992
  16.41641    0.17594   -8.86872   14.22471  -97.38830
  16.43644    0.17511   -8.82440   13.51986  -94.70854
  16.45646    0.17440   -8.79328   12.86859  -92.16101
  16.47648    0.17371   -8.76007   12.26550  -89.72613
  16.49650    0.17292   -8.71976   11.70629  -87.39855
  16.51652    0.17192   -8.69278   11.18704  -85.17534
  16.53654    0.17065   -8.66269   10.70408  -83.04031
  16.55655    0.16921   -8.62430   10.25473  -81.01037
  16.57657    0.16775   -8.60755    9.83586  -79.05811
  16.59660    0.16635   -8.57390    9.44489  -77.17342
  16.61662    0.16506   -8.52514    9.07986  -75.36153
  16.63664    0.16391   -8.50009    8.73884  -73.62257
  16.65666    0.16288   -8.47622    8.41992  -71.93784
  16.67668    0.16197   -8.43694    8.12182  -70.32946
  16.69670    0.16116   -8.40834    7.84280  -68.76702
  16.71671    0.16046   -8.38106    7.58174  -67.25320
  16.73673    0.15987   -8.34430    7.33754  -65.78830
  16.75676    0.15938   -8.31288    7.10927  -64.37453
  16.77678    0.15900   -8.27716    6.89598  -62.99974
  16.79680    0.15873   -8.24781    6.69692  -61.66203
  16.81682    0.15854   -8.21401    6.51159  -60.37262
  16.83684    0.15837   -8.19267    6.33921  -59.10767
  16.85686    0.15819   -8.16376    6.17951  -57.88274
  16.87688    0.15796   -8.12286    6.03201  -56.67797
  16.89689    0.15776   -8.10047    5.89652  -55.50225
  16.91692    0.15764   -8.06282    5.77295  -54.35900
  16.93694    0.15769   -8.04385    5.66122  -53.23901
  16.95695    0.15794   -8.00072    5.56142  -52.14170
  16.97698    0.15842   -7.97359    5.47373  -51.05714
  16.99700    0.15918   -7.94217    5.39856  -49.98919
  17.01702    0.16025   -7.90126    5.33654  -48.94168
  17.03704    0.16169   -7.86954    5.28836  -47.90337
  17.05706    0.16357   -7.84019    5.25513  -46.87914
  17.07708    0.16597   -7.80921    5.23812  -45.85935
  17.09710    0.16903   -7.77616    5.23911  -44.84565
  17.11712    0.17289   -7.74325    5.26028  -43.83149
  17.13714    0.17777   -7.71138    5.30455  -42.82238
  17.15716    0.18395   -7.67685    5.37550  -41.80971
  17.17718    0.19179   -7.64572    5.47779  -40.79245
  17.19720    0.20180   -7.61622    5.61742  -39.76747
  17.21722    0.21462   -7.58599    5.80210  -38.72427
  17.23724    0.23103   -7.54611    6.04200  -37.65957
  17.25726    0.25198   -7.52862    6.35041  -36.56967
  17.27728    0.27830   -7.50061    6.74497  -35.45769
  17.29730    0.31017   -7.47763    7.24918  -34.33000
  17.31732    0.34599   -7.47645    7.89401  -33.18748
  17.33734    0.38072   -7.47600    8.72049  -32.03875
  17.35736    0.40551   -7.49824    9.78159  -30.91728
  17.37738    0.41121   -7.53203   11.14228  -29.86725
  17.39740    0.39513   -7.55412   12.87396  -28.99762
  17.41742    0.36348   -7.57087   15.03108  -28.48521
  17.43744    0.32601   -7.57620   17.59576  -28.59000
  17.45746    0.29010   -7.56390   20.37334  -29.63632
  17.47748    0.25914   -7.52833   22.87749  -31.86636
  17.49750    0.23380   -7.51202   24.37439  -35.14820
  17.51752    0.21351   -7.47645   24.27266  -38.87042
  17.53754    0.19733   -7.43643   22.60011  -42.12395
  17.55756    0.18440   -7.40886   19.97958  -44.31011
  17.57758    0.17397   -7.37580   17.13290  -45.33493
  17.59760    0.16546   -7.34779   14.52089  -45.45144
  17.61762    0.15843   -7.32363   12.32148  -44.98528
  17.63764    0.15257   -7.28998   10.54451  -44.18827
  17.65766    0.14762   -7.25470    9.13312  -43.23548
  17.67768    0.14340   -7.23499    8.01636  -42.23067
  17.69770    0.13977   -7.21424    7.13009  -41.21800
  17.71772    0.13660   -7.18267    6.42215  -40.22356
  17.73774    0.13381   -7.16310    5.85256  -39.26188
  17.75776    0.13135   -7.13746    5.39096  -38.33681
  17.77778    0.12914   -7.09922    5.01456  -37.44672
  17.79780    0.12717   -7.08380    4.70635  -36.59354
  17.81782    0.12537   -7.06053    4.45347  -35.77504
  17.83784    0.12374   -7.03696    4.24619  -34.98233
  17.85786    0.12225   -7.01280    4.07728  -34.21646
  17.87788    0.12088   -6.99042    3.94127  -33.47400
  17.89790    0.11962   -6.96241    3.83407  -32.74400
  17.91792    0.11845   -6.93276    3.75281  -32.03208
  17.93794    0.11737   -6.91216    3.69549  -31.33275
  17.95796    0.11637   -6.88696    3.66086  -30.63224
  17.97798    0.11544   -6.86058    3.64854  -29.94196
  17.99800    0.11459   -6.84205    3.65871  -29.24975
  18.01802    0.11380   -6.82070    3.69234  -28.55873
  18.03804    0.11309   -6.79476    3.75112  -27.86770
  18.05806    0.11245   -6.77357    3.83758  -27.16808
  18.07808    0.11188   -6.74941    3.95533  -26.46165
  18.09810    0.11139   -6.72925    4.10917  -25.73208
  18.11812    0.11096   -6.70524    4.30568  -24.99482
  18.13814    0.11057   -6.68686    4.55323  -24.21886
  18.15816    0.11021   -6.66477    4.86333  -23.42260
  18.17818    0.10987   -6.64432    5.25082  -22.58824
  18.19820    0.10956   -6.62416    5.73572  -21.72513
  18.21822    0.10933   -6.60548    6.34460  -20.82985
  18.23824    0.10917   -6.58443    7.11259  -19.90212
  18.25826    0.10907   -6.56398    8.08650  -18.96474
  18.27828    0.10893   -6.54708    9.32622  -18.04234
  18.29830    0.10868   -6.52144   10.90566  -17.19983
  18.31832    0.10831   -6.50157   12.90516  -16.57373
  18.33834    0.10789   -6.47860   15.38370  -16.34695
  18.35836    0.10752   -6.45903   18.31594  -16.83268
  18.37838    0.10729   -6.43725   21.47023  -18.39096
  18.39840    0.10725   -6.41753   24.28349  -21.28372
  18.41842    0.10742   -6.39722   25.92473  -25.33781
  18.43844    0.10784   -6.37232   25.74882  -29.83212
  18.45846    0.10854   -6.35216   23.82420  -33.77801
  18.47848    0.10957   -6.33423   20.86753  -36.46621
  18.49850    0.11101   -6.31377   17.68583  -37.87079
  18.51852    0.11296   -6.29584   14.78128  -38.24550
  18.53854    0.11555   -6.27642   12.34269  -37.96921
  18.55856    0.11897   -6.25241   10.37712  -37.34400
  18.57858    0.12346   -6.23062    8.81818  -36.54833
  18.59860    0.12929   -6.21269    7.58605  -35.69115
  18.61862    0.13676   -6.19475    6.60897  -34.82418
  18.63864    0.14607   -6.17578    5.82897  -33.98523
  18.65866    0.15698   -6.16229    5.20131  -33.17014
  18.67868    0.16841   -6.15043    4.69237  -32.39982
  18.69870    0.17796   -6.14287    4.27672  -31.67574
  18.71872    0.18248   -6.14495    3.93537  -30.99094
  18.73874    0.17995   -6.14346    3.65389  -30.34439
  18.75876    0.17125   -6.14258    3.42151  -29.73044
  18.77878    0.15933   -6.13650    3.23003  -29.13754
  18.79880    0.14704   -6.12894    3.07337  -28.57503
  18.81882    0.13602   -6.10982    2.94695  -28.02690
  18.83884    0.12680   -6.09322    2.84759  -27.50648
  18.85886    0.11931   -6.07113    2.77308  -26.99422
  18.87888    0.11329   -6.05171    2.72227  -26.49796
  18.89890    0.10845   -6.04015    2.69482  -26.00778
  18.91892    0.10452   -6.01792    2.69138  -25.51746
  18.93894    0.10129   -5.99405    2.71365  -25.03202
  18.95896    0.09860   -5.97330    2.76450  -24.55118
  18.97898    0.09634   -5.95833    2.84823  -24.06604
  18.99900    0.09440   -5.94055    2.97110  -23.59172
  19.01902    0.09273   -5.92142    3.14160  -23.09413
  19.03904    0.09127   -5.90645    3.37163  -22.60158
  19.05906    0.08997   -5.88081    3.67701  -22.11674
  19.07908    0.08882   -5.86806    4.07840  -21.63916
  19.09910    0.08777   -5.85176    4.60140  -21.21316
  19.11912    0.08683   -5.83367    5.27376  -20.83860
  19.13914    0.08596   -5.81915    6.11724  -20.62590
  19.15916    0.08516   -5.79721    7.12392  -20.65020
  19.17918    0.08442   -5.78372    8.21614  -21.06524
  19.19920    0.08374   -5.75571    9.19983  -21.94865
  19.21922    0.08310   -5.74326    9.78328  -23.24814
  19.23924    0.08251   -5.73733    9.73152  -24.73261
  19.25926    0.08196   -5.71880    9.05597  -26.02364
  19.27928    0.08145   -5.70917    8.00469  -26.88587
  19.29930    0.08099   -5.69286    6.86468  -27.29244
  19.31932    0.08056   -5.67255    5.81922  -27.33751
  19.33934    0.08016   -5.64662    4.93812  -27.14808
  19.35936    0.07978   -5.63609    4.22552  -26.84584
  19.37938    0.07937   -5.61460    3.65833  -26.46891
  19.39940    0.07892   -5.59503    3.20833  -26.08249
  19.41942    0.07843   -5.58466    2.84996  -25.68569
  19.43944    0.07789   -5.56391    2.56249  -25.30179
  19.45946    0.07735   -5.54731    2.32996  -24.94916
  19.47948    0.07681   -5.53797    2.14022  -24.59298
  19.49950    0.07629   -5.52641    1.98429  -24.27859
  19.51952    0.07579   -5.51188    1.85516  -23.95813
  19.53954    0.07532   -5.50091    1.74784  -23.66746
  19.55956    0.07487   -5.48994    1.65835  -23.38480
  19.57958    0.07443   -5.47290    1.58379  -23.11414
  19.59960    0.07402   -5.46341    1.52195  -22.86275
  19.61962    0.07361   -5.45170    1.47113  -22.60425
  19.63964    0.07322   -5.43999    1.43023  -22.37925
  19.65966    0.07284   -5.43347    1.39834  -22.14416
  19.67968    0.07246   -5.42369    1.37502  -21.91738
  19.69970    0.07209   -5.40353    1.36011  -21.70275
  19.71972    0.07173   -5.39374    1.35374  -21.49953
  19.73974    0.07138   -5.38663    1.35638  -21.30803
  19.75976    0.07103   -5.37536    1.36883  -21.11667
  19.77978    0.07068   -5.36321    1.39242  -20.93450
  19.79980    0.07034   -5.36143    1.42895  -20.74996
  19.81982    0.07001   -5.34201    1.48107  -20.58335
  19.83984    0.06967   -5.33312    1.55231  -20.43350
  19.85986    0.06935   -5.32452    1.64747  -20.29728
  19.87988    0.06902   -5.31667    1.77306  -20.19204
  19.89990    0.06870   -5.30229    1.93758  -20.13142
  19.91992    0.06837   -5.29947    2.15177  -20.12890
  19.93994    0.06805   -5.28984    2.42819  -20.26452
  19.95996    0.06771   -5.27264    2.77817  -20.67881
  19.97998    0.06680   -5.28880    3.17884  -22.20627
  20.00     0.7443E-3  -5.267     0.3194E-1  -22.41   
# 
# 04/03/2015 at 14:27 YAMBO @ anomaly [start]
# 04/03/2015 at 14:28                 [end]
#  
# Timing   [Min/Max/Average]: 04s/04s/04s
#
# .-Input file : Inputs/06_BSE
# | optics                       # [R OPT] Optics
# | bse                          # [R BSE] Bethe Salpeter Equation.
# | bsk                          # [R BSK] Bethe Salpeter Equation kernel
# | bss                          # [R BSS] Bethe Salpeter Equation solver
# | FFTGvecs=  9939        RL    # [FFT] Plane-waves
# | BS_CPU= ""                   # [PARALLEL] CPUs for each role
# | BS_ROLEs= ""                 # [PARALLEL] CPUs roles (k,eh,t)
# | BS_nCPU_invert= 1            # [PARALLEL] CPUs for matrix inversion
# | BS_nCPU_diago= 1             # [PARALLEL] CPUs for matrix diagonalization
# | X_Threads=0                  # [OPENMP/X] Number of threads for response functions
# | DIP_Threads=0                # [OPENMP/X] Number of threads for dipoles
# | NonPDirs= "XYZ"              # [X/BSS] Non periodic chartesian directions (X,Y,Z,XY...)
# | BSEmod= "causal"             # [BSE] resonant/causal/x_coupling/xc_coupling
# | BSKmod= "SEX"                # [BSE] IP/Hartree/HF/ALDA/SEX
# | BSSmod= "d"                  # [BSS] (h)aydock/(d)iagonalization/(i)nversion/(t)ddft`
# | BSENGexx=  437         RL    # [BSK] Exchange components
# | BSENGBlk=  619         RL    # [BSK] Screened interaction block size
# | % KfnQP_E
# |  7.600000 | 1.000000 | 1.000000 |        # [EXTQP BSK BSS] E parameters  (c/v) eV|adim|adim
# | %
# | % BEnRange
# |   0.00000 | 20.00000 | eV    # [BSS] Energy range
# | %
# | % BDmRange
# |   0.10000 |  0.10000 | eV    # [BSS] Damping range
# | %
# | BEnSteps= 1000               # [BSS] Energy steps
# | % BLongDir
# | 0.1000E-4 | 0.000    | 0.000    |        # [BSS] [cc] Electric Field
# | %
# | % BSEBands
# |    1 |  70 |                 # [BSK] Bands range
# | %
