#  __  __   ________   ___ __ __    _______   ______        
# /_/\/_/\ /_______/\ /__//_//_/\ /_______/\ /_____/\       
# \ \ \ \ \\::: _  \ \\::\| \| \ \\::: _  \ \\:::_ \ \      
#  \:\_\ \ \\::(_)  \ \\:.      \ \\::(_)  \/_\:\ \ \ \     
#   \::::_\/ \:: __  \ \\:.\-/\  \ \\::  _  \ \\:\ \ \ \    
#     \::\ \  \:.\ \  \ \\. \  \  \ \\::(_)  \ \\:\_\ \ \   
#      \__\/   \__\/\__\/ \__\/ \__\/ \_______\/ \_____\/   
#                                                           
#             GPL Version 3.1.2 Revision 297                
#                http://www.yambo-code.org                  
#
# Polarization (-<<X>>) [area] @ IQ 1 :0.1000E-4  0.000     0.000
#
# - The gauge is transverse + [r,Vnl] -
#
# BSK|Identifier              :854
#    |Dimension               :1656
#    |Bands                   :20 - 60
#    |Exchange           [res]: yes
#    |Correlation        [res]: no
#    |Kernel`s coupling       : no
#    |Exchange           [cpl]: no
#    |Correlation        [cpl]: no
#    |ALDA kernel in R-space  : yes
#    |RL vectors    [exchange]:107
#    |E/h energy range    [ev]:-1.000000 - -1.000000
#    |Coupling range     [o/o]: 100.0000 -  100.0000
#
# Haydock|Accuracy (requested) [o/o]: -0.02000
#        |Accuracy (reached)   [o/o]:  0.01795
#        |Iteration                 :34
#
#  E/ev[1]    alpha/Im   alpha/Re   alphao/Im  alphao/Re  alpha`/Im  alpha`/Re
#
   0.00000    0.60740   30.16679    0.62688   30.84929    0.60740   30.16679
   0.05025    0.62031   30.47497    0.64020   31.16733    0.62031   30.47497
   0.10050    0.63364   30.78972    0.65397   31.49219    0.63364   30.78972
   0.15075    0.64742   31.11127    0.66820   31.82404    0.64742   31.11127
   0.20101    0.66167   31.43985    0.68291   32.16318    0.66167   31.43985
   0.25126    0.67641   31.77569    0.69812   32.50980    0.67641   31.77569
   0.30151    0.69166   32.11906    0.71386   32.86418    0.69166   32.11906
   0.35176    0.70745   32.47020    0.73016   33.22662    0.70745   32.47020
   0.40201    0.72380   32.82940    0.74703   33.59733    0.72380   32.82940
   0.45226    0.74075   33.19696    0.76451   33.97668    0.74075   33.19696
   0.50251    0.75832   33.57316    0.78263   34.36499    0.75832   33.57316
   0.55276    0.77654   33.95833    0.80143   34.76246    0.77654   33.95833
   0.60302    0.79546   34.35281    0.82092   35.16959    0.79546   34.35281
   0.65327    0.81509   34.75694    0.84116   35.58666    0.81509   34.75694
   0.70352    0.83549   35.17111    0.86219   36.01406    0.83549   35.17111
   0.75377    0.85670   35.59570    0.88403   36.45222    0.85670   35.59570
   0.80402    0.87875   36.03112    0.90675   36.90157    0.87875   36.03112
   0.85427    0.90169   36.47783    0.93038   37.36248    0.90169   36.47783
   0.90452    0.92559   36.93625    0.95498   37.83548    0.92559   36.93625
   0.95477    0.95048   37.40689    0.98060   38.32104    0.95048   37.40689
   1.00503    0.97644   37.89027    1.00731   38.81976    0.97644   37.89027
   1.05528    1.00351   38.38694    1.03516   39.33208    1.00351   38.38694
   1.10553    1.03178   38.89745    1.06424   39.85870    1.03178   38.89745
   1.15578    1.06131   39.42244    1.09460   40.40016    1.06131   39.42244
   1.20603    1.09219   39.96254    1.12633   40.95722    1.09219   39.96254
   1.25628    1.12449   40.51845    1.15953   41.53047    1.12449   40.51845
   1.30653    1.15832   41.09091    1.19427   42.12075    1.15832   41.09091
   1.35678    1.19377   41.68071    1.23068   42.72883    1.19377   41.68071
   1.40704    1.23096   42.28867    1.26885   43.35557    1.23096   42.28867
   1.45729    1.27000   42.91570    1.30891   44.00187    1.27000   42.91570
   1.50754    1.31102   43.56274    1.35098   44.66872    1.31102   43.56274
   1.55779    1.35417   44.23082    1.39523   45.35711    1.35417   44.23082
   1.60804    1.39960   44.92106    1.44180   46.06824    1.39960   44.92106
   1.65829    1.44749   45.63461    1.49087   46.80326    1.44749   45.63461
   1.70854    1.49802   46.37275    1.54263   47.56349    1.49802   46.37275
   1.75879    1.55140   47.13684    1.59728   48.35027    1.55140   47.13684
   1.80905    1.60787   47.92837    1.65507   49.16514    1.60787   47.92837
   1.85930    1.66767   48.74891    1.71625   50.00972    1.66767   48.74891
   1.90955    1.73109   49.60021    1.78111   50.88575    1.73109   49.60021
   1.95980    1.79844   50.48412    1.84997   51.79514    1.79844   50.48412
   2.01005    1.87008   51.40271    1.92318   52.73994    1.87008   51.40271
   2.06030    1.94639   52.35815    2.00114   53.72242    1.94639   52.35815
   2.11055    2.02783   53.35291    2.08430   54.74508    2.02783   53.35291
   2.16080    2.11488   54.38963    2.17318   55.81058    2.11488   54.38963
   2.21106    2.20812   55.47121    2.26834   56.92188    2.20812   55.47121
   2.26131    2.30818   56.60089    2.37045   58.08219    2.30818   56.60089
   2.31156    2.41580   57.78219    2.48025   59.29528    2.41580   57.78219
   2.36181    2.53182   59.01904    2.59861   60.56492    2.53182   59.01904
   2.41206    2.65720   60.31580    2.72651   61.89579    2.65720   60.31580
   2.46231    2.79306   61.67735    2.86513   63.29266    2.79306   61.67735
   2.51256    2.94072   63.10911    3.01582   64.76123    2.94072   63.10911
   2.56281    3.10171   64.61726    3.18018   66.30765    3.10171   64.61726
   2.61307    3.27784   66.20869    3.36012   67.93910    3.27784   66.20869
   2.66332    3.47128   67.89130    3.55791   69.66372    3.47128   67.89130
   2.71357    3.68461   69.67408    3.77632   71.49067    3.68461   69.67408
   2.76382    3.92100   71.56737    4.01873   73.43074    3.92100   71.56737
   2.81407    4.18432   73.58314    4.28936   75.49634    4.18432   73.58314
   2.86432    4.47936   75.73534    4.59347   77.70212    4.47936   75.73534
   2.91457    4.81218   78.04040    4.93783   80.06534    4.81218   78.04040
   2.96482    5.19055   80.51778    5.33122   82.60650    5.19055   80.51778
   3.01508    5.62455   83.19087    5.78535   85.35083    5.62455   83.19087
   3.06533    6.12765   86.08807    6.31614   88.32886    6.12765   86.08807
   3.11558    6.71821   89.24422    6.94597   91.57878    6.71821   89.24422
   3.16583    7.42204   92.70284    7.70722   95.14883    7.42204   92.70284
   3.21608    8.27657   96.51894    8.64873   99.10085    8.27657   96.51894
    3.2663     9.3384   100.7631     9.8474   103.5147     9.3384   100.7631
    3.3166    10.6969   105.5266    11.4310   108.4938    10.6969   105.5266
    3.3668    12.5016   110.9268    13.6243   114.1659    12.5016   110.9268
    3.4171    15.0171   117.1061    16.8484   120.6600    15.0171   117.1061
    3.4673    18.7423   124.1950    21.9286   127.9664    18.7423   124.1950
    3.5176    24.6531   132.1144    30.4205   135.3126    24.6531   132.1144
    3.5678    34.4947   139.7118    43.9721   138.9953    34.4947   139.7118
    3.6181    49.2833   142.1963    57.0263   131.4984    49.2833   142.1963
    3.6683    60.1837   133.3312    54.8628   120.5772    60.1837   133.3312
    3.7186    56.0129   126.6030    46.4951   123.0039    56.0129   126.6030
    3.7688    50.8886   133.4019    44.7201   133.5786    50.8886   133.4019
    3.8191    54.3969   145.5432    50.6513   144.2408    54.3969   145.5432
    3.8693    65.3692   154.1510    59.2415   149.0324    65.3692   154.1509
    3.9196    73.9613   156.6931    61.3427   153.1756    73.9610   156.6933
    3.9698    78.1303   164.9431    63.3920   166.6785    78.1318   164.9439
    4.0201    88.1206   180.8647    74.2057   186.6422    88.1189   180.8578
    4.0704   111.0298   201.2574    98.9768   208.1683   111.0129   201.2771
    4.1206   156.5813   213.8348   143.6114   219.0783   156.6834   213.8387
    4.1709   214.6779   188.3824   193.6748   193.6311   214.3754   188.1635
    4.2211   229.6193   130.3730   200.4221   149.0824   230.0874   131.1375
    4.2714   212.5214   108.5687   187.8800   143.5378   212.5506   107.0913
    4.3216   220.4659   104.1792   208.3452   154.8561   218.9261   105.7944
    4.3719   233.6628    76.5802   250.1519   130.8109   236.5556    76.3623
    4.4221   217.0752    47.5744   250.1113    82.2100   215.2092    45.5040
    4.4724   197.6080    54.7764   232.9159    75.0989   196.2339    56.9127
    4.5226   217.5511    73.4180   254.9930    78.1843   220.0815    74.8668
    4.5729   269.1107    48.3540   292.8254    35.0071   270.6280    44.5784
    4.6231   272.4307   -32.0140   277.1532   -40.0313   267.1982   -32.5500
    4.6734   214.9361   -70.9724   218.7624   -71.8389   215.5219   -64.9385
    4.7236   176.9790   -64.7789   176.4452   -66.2732   184.0948   -66.6075
    4.7739   160.9865   -64.6328   154.0122   -56.0438   157.0779   -72.0783
    4.8241   133.5492   -67.1967   136.0098   -49.1576   126.8792   -62.2955
    4.8744   107.7500   -50.0842   120.8361   -37.7866   112.6954   -43.3893
    4.9246    99.3884   -25.9671   109.1837   -26.4260   106.5192   -31.2456
    4.9749   103.2654    -8.9952    98.7946    -8.5216    97.8623   -16.1566
    5.0251   106.5814     3.0687   100.1730    15.1432    99.3397     7.6263
    5.0754   117.1883    20.5296   116.9574    33.3527   120.2257    28.7753
    5.1256   147.6820    27.5034   139.1652    32.7564   157.9238    25.5614
    5.1759   175.1250    -2.4902   147.7230    22.3145   172.9551   -14.0766
    5.2261   156.3724   -37.0152   148.1960    13.6646   145.5873   -35.6322
    5.2764   127.3989   -31.8391   137.7498    12.6507   125.8379   -21.7890
    5.3266   122.4216    -7.8006   132.1977    30.1115   132.6431    -2.1704
    5.3769   144.1057    10.0734   144.6172    55.0726   154.1243    -1.8478
    5.4271   175.6229    -1.2201   180.0242    75.5159   160.7952   -13.5692
    5.4774   182.4553   -25.9706   236.3935    69.7564   169.8306   -10.1483
    5.5276   190.2778   -35.7673   281.6566    23.0588   205.9467   -22.6607
    5.5779   210.1748   -70.7909   292.3834   -36.2798   221.8046   -85.9940
    5.6281   184.4629  -125.4771   276.8542   -88.3127   173.3226  -134.5419
    5.6784   131.5315  -136.9375   243.0204  -122.7597   122.9345  -131.2715
    5.7286    97.9868  -118.9602   211.4876  -132.3540    98.9308  -110.1236
    5.7789    86.5629   -96.9212   189.8200  -138.9868    95.6038   -93.8972
    5.8291    90.0553   -84.4562   168.5324  -137.1349    95.6770   -93.6703
    5.8794    90.8213   -87.5131   162.2803  -133.5813    82.7665   -93.8435
    5.9296    78.9280   -86.3664   156.1470  -142.8369    72.1202   -81.2202
    5.9799    72.7194   -73.8420   142.0934  -150.9512    74.6929   -66.2662
    6.0302    79.9189   -63.6906   124.1158  -156.9822    88.1894   -63.1460
    6.0804    90.1305   -70.3344   102.8089  -152.0555    91.7812   -78.3844
    6.1307    81.0892   -82.9009    93.8496  -139.3568    75.1222   -85.2765
    6.1809    65.1387   -78.4043    94.8757  -136.7476    61.6558   -75.0375
    6.2312    59.2787   -64.1667    86.3793  -142.7296    60.1742   -59.8613
    6.2814    65.5700   -50.6289    72.0146  -139.4695    70.3392   -49.1990
    6.3317    80.7785   -48.2957    64.1249  -130.8728    83.9270   -53.4891
    6.3819    86.9967   -60.7620    61.2007  -124.9112    82.0364   -64.3150
    6.4322    79.6691   -64.8393    58.4739  -120.9754    75.9805   -61.2602
    6.4824    81.2593   -59.3338    57.7384  -118.1455    83.4577   -55.3364
    6.5327    92.8429   -65.2431    56.3782  -120.0301    96.7280   -66.6560
    6.5829    89.0613   -84.7147    49.6487  -122.1503    88.3142   -87.6161
    6.6332    70.2994   -88.8100    41.6856  -120.2381    68.4651   -88.9572
    6.6834    59.9157   -78.1988    35.2826  -116.4345    59.1528   -77.1975
    6.7337    63.2222   -65.9292    29.9183  -112.1575    63.5343   -64.9074
    6.7839    78.6234   -64.0090    25.2494  -107.1129    79.6623   -63.8160
    6.8342    88.8020   -83.7562    22.0474  -101.3580    89.2141   -84.6105
    6.8844    73.5048  -102.5731    20.6276   -95.8495    73.0470  -103.0275
    6.9347    55.0606  -101.5653    20.4862   -91.4773    54.6376  -101.5042
   6.98492   47.35550  -94.08051   20.83929  -88.55340   47.12247  -93.79091
   7.03518   46.08039  -91.65997   20.69217  -87.05772   46.18171  -91.25064
   7.08543   40.28484  -93.44959   19.37186  -86.08917   40.71196  -93.37026
   7.13568   31.66668  -89.76752   16.71635  -84.54794   31.91968  -90.06441
   7.18593   27.11035  -82.26225   14.20644  -81.30585   27.03218  -82.64342
   7.23618   27.53117  -75.01316   13.04967  -77.65641   27.09726  -75.21835
   7.28643   32.08948  -71.84903   12.59749  -74.45033   31.55238  -71.40507
   7.33668   34.57081  -76.02174   12.44172  -71.50190   35.06042  -75.21630
   7.38693   29.12251  -79.38078   12.83006  -68.64497   30.00708  -79.82021
   7.43719   23.54761  -76.85995   13.95625  -66.71086   23.30188  -77.80634
   7.48744   21.20612  -73.51434   14.23757  -66.08115   20.17174  -73.42420
   7.53769   19.01822  -71.42384   13.18670  -64.57030   19.07205  -70.43176
   7.58794   16.37364  -68.02280   12.93007  -61.74450   17.15014  -67.97448
   7.63819   15.55104  -63.46091   14.08107  -58.84462   15.78510  -64.04034
   7.68844   17.17648  -59.60612   16.70011  -56.65763   16.72729  -60.01621
   7.73869   20.01427  -58.81955   20.63065  -56.63017   19.49457  -58.41586
   7.78894   19.79381  -60.31793   23.04781  -60.07229   20.16285  -59.83704
   7.83920   17.64136  -59.02561   21.79915  -63.36330   18.05346  -59.26554
   7.88945   17.96688  -55.99376   19.58235  -64.76769   17.85468  -56.39647
   7.93970   21.12916  -55.19286   17.77034  -65.31937   20.69972  -55.13827
   7.98995   22.45269  -58.90869   15.55742  -66.28304   22.54655  -58.49529
   8.04020   18.91885  -61.34342   12.16420  -65.96468   19.23232  -61.46134
   8.09045   15.84621  -60.58101    9.69650  -64.08703   15.73908  -60.80636
   8.14070   13.74579  -60.02136    8.38408  -62.36828   13.60531  -59.92809
   8.19095   10.83422  -58.95113    7.03843  -61.02708   10.88723  -58.87529
   8.24121    8.45656  -56.55959    5.70546  -59.30243    8.50536  -56.57836
   8.29146    7.17780  -53.86411    4.86090  -57.37342    7.17679  -53.90155
   8.34171    6.67838  -51.51912    4.47314  -55.58570    6.64548  -51.52449
   8.39196    6.31398  -49.78313    4.30619  -54.13901    6.31185  -49.75424
   8.44221    5.61118  -48.08548    4.02095  -52.90019    5.63171  -48.08725
   8.49246    5.00124  -46.08205    3.69485  -51.54687    4.99849  -46.09594
   8.54271    4.65482  -43.99274    3.55283  -50.08504    4.64563  -43.98905
   8.59296    4.50592  -41.89734    3.67182  -48.62365    4.51015  -41.89236
   8.64322    4.51295  -39.79364    4.08169  -47.21899    4.51435  -39.79695
   8.69347    4.64879  -37.64137    4.96550  -45.93709    4.64730  -37.64128
   8.74372    4.93407  -35.37862    6.59195  -45.34586    4.93425  -35.37814
   8.79397    5.41466  -32.95048    8.06714  -46.62020    5.41480  -32.95056
   8.84422    6.16135  -30.28378    7.11968  -48.56128    6.16133  -30.28382
   8.89447    7.30217  -27.27848    5.06648  -48.68072    7.30216  -27.27847
   8.94472    9.07163  -23.80592    3.64019  -47.73522    9.07163  -23.80592
   8.99498   11.91408  -19.72228    2.81425  -46.60271   11.91408  -19.72228
   9.04523   16.70928  -14.96740    2.32080  -45.52858   16.70928  -14.96740
   9.09548   25.21922  -10.04088    2.00392  -44.54932   25.21922  -10.04089
   9.14573   40.38911   -7.95422    1.78554  -43.65611   40.38911   -7.95422
   9.19598   61.77167  -18.90139    1.62569  -42.83409   61.77167  -18.90139
   9.24623   68.88653  -49.55097    1.50275  -42.07037   68.88653  -49.55097
   9.29648   50.29903  -71.13903    1.40436  -41.35493   50.29903  -71.13903
   9.34673   31.20763  -73.54234    1.32306  -40.68018   31.20763  -73.54234
   9.39698   19.80923  -69.42756    1.25413  -40.04041   19.80923  -69.42756
   9.44724   13.42396  -64.64880    1.19447  -39.43102   13.42396  -64.64880
   9.49749    9.68136  -60.49167    1.14196  -38.84853    9.68136  -60.49167
   9.54774    7.34891  -57.05798    1.09509  -38.29005    7.34891  -57.05798
   9.59799    5.81107  -54.22385    1.05280  -37.75334    5.81107  -54.22385
   9.64824    4.74756  -51.85383    1.01428  -37.23643    4.74756  -51.85383
   9.69849    3.98224  -49.83973    0.97893  -36.73769    3.98224  -49.83973
   9.74874    3.41313  -48.10097    0.94625  -36.25578    3.41313  -48.10097
   9.79899    2.97839  -46.57872    0.91590  -35.78944    2.97839  -46.57872
   9.84925    2.63833  -45.23057    0.88757  -35.33765    2.63833  -45.23057
   9.89950    2.36414  -44.02403    0.86101  -34.89948    2.36414  -44.02403
   9.94975    2.13772  -42.93038    0.83603  -34.47414    2.13772  -42.93038
  10.00000    1.94994  -41.92995    0.81246  -34.06091    1.94994  -41.92995
# 
# YAMBO@anomaly.roma2.infn.it x 001 CPUs * 08/29/2008  10:20 [start]
#                                          08/29/2008  10:22 [end]
# 
# Cpu Timing [Min/Max/Average]: 02m-01s/02m-01s/02m-01s
#
# .-Input file : Inputs/04_alda_r_space
# | optics                       # [R OPT] Optics
# | bse                          # [R BSK] Bethe Salpeter Equation.
# | bss                          # [R BSS] Bethe Salpeter Equation solver
# | alda_fxc                     # [R TDDFT] The ALDA TDDFT kernel
# | FFTGvecs=  997           RL  # [FFT] Plane-waves
# | BSresKmod= "x"               # [BSK] Resonant Kernel mode. (`x`;`c`;`d`)
# | % BSEBands
# |   20 |  60 |                 # [BSK] Bands range
# | %
# | BSENGexx= 107            RL  # [BSK] Exchange components
# | BSSmod= "h"                  # [BSS] Solvers `h/d/i/t`
# | % BEnRange
# |   0.00000 | 10.00000 |   eV  # [BSS] Energy range
# | %
# | % BDmRange
# |   0.10000 |  0.10000 |   eV  # [BSS] Damping range
# | %
# | BEnSteps= 200                # [BSS] Energy steps
# | % BLongDir
# | 0.1000E-4 | 0.000    | 0.000    |      # [BSS] [cc] Electric Field
# | %
