#                                                           
#  /$$     /$$ /$$$$$$  /$$      /$$ /$$$$$$$   /$$$$$$     
# |  $$   /$$//$$__  $$| $$$    /$$$| $$__  $$ /$$__  $$    
#  \  $$ /$$/| $$  \ $$| $$$$  /$$$$| $$  \ $$| $$  \ $$    
#   \  $$$$/ | $$$$$$$$| $$ $$/$$ $$| $$$$$$$ | $$  | $$    
#    \  $$/  | $$__  $$| $$  $$$| $$| $$__  $$| $$  | $$    
#     | $$   | $$  | $$| $$\  $ | $$| $$  \ $$| $$  | $$    
#     | $$   | $$  | $$| $$ \/  | $$| $$$$$$$/|  $$$$$$/    
#     |__/   |__/  |__/|__/     |__/|_______/  \______/     
#                                                           
#             GPL Version 3.2.4 Revision 941                
#               http://www.yambo-code.org                   
#
# EELS @ Q(1)  [q->0 direction]:0.1000E-4  0.000     0.000   
#
#
# - Energies      are Teter Parametrization(93) (xc)
# - Wavefunctions are Teter Parametrization(93) (xc)
#
# - The Green`s function is resonant -
# - Using Shifted Grids -
# - [r,Vnl] *is* included -
#
#   BSK|Identifier              :7525
#      |Dimension               :199
#      |Bands                   :1 - 200
#      |Exchange           [res]: yes
#      |Correlation        [res]: no
#      |Kernel`s coupling       : no
#      |Exchange           [cpl]: no
#      |W interaction is bare   : no
#      |Correlation        [cpl]: no
#      |ALDA kernel in R-space  : no
#      |RL vectors    [exchange]:9045
#      |E/h energy range    [ev]:-1.000000 - -1.000000
#      |Coupling range     [o/o]: 100.0000 -  100.0000
#
#  E/ev[1]    eel /Im[2] eel /Re[3] eel0/Im[4] eel0/Re[5]
#
  0.00      -.101E-11  -.993      0.615E-11  -.983    
 0.1502E-1  0.4048E-4  -.9927     0.9863E-4  -.9832   
 0.3003E-1  0.4107E-4  -.9927     0.1002E-3  -.9832   
 0.4505E-1  0.4121E-4  -.9927     0.1007E-3  -.9833   
 0.6006E-1  0.4133E-4  -.9927     0.1011E-3  -.9833   
 0.7508E-1  0.4145E-4  -.9927     0.1015E-3  -.9833   
 0.9009E-1  0.4156E-4  -.9927     0.1019E-3  -.9833   
 0.1051     0.4167E-4  -.9927     0.1023E-3  -.9833   
 0.1201     0.4178E-4  -.9927     0.1027E-3  -.9833   
 0.1351     0.4189E-4  -.9927     0.1031E-3  -.9833   
 0.1502     0.4200E-4  -.9927     0.1035E-3  -.9833   
 0.1652     0.4211E-4  -.9927     0.1039E-3  -.9833   
 0.1802     0.4222E-4  -.9927     0.1043E-3  -.9833   
 0.1952     0.4233E-4  -.9927     0.1047E-3  -.9833   
 0.2102     0.4244E-4  -.9927     0.1051E-3  -.9833   
 0.2252     0.4255E-4  -.9927     0.1055E-3  -.9834   
 0.2402     0.4266E-4  -.9927     0.1059E-3  -.9834   
 0.2553     0.4277E-4  -.9927     0.1063E-3  -.9834   
 0.2703     0.4288E-4  -.9927     0.1067E-3  -.9834   
 0.2853     0.4299E-4  -.9927     0.1071E-3  -.9834   
 0.3003     0.4311E-4  -.9927     0.1075E-3  -.9834   
 0.3153     0.4322E-4  -.9927     0.1079E-3  -.9834   
 0.3303     0.4333E-4  -.9927     0.1084E-3  -.9834   
 0.3453     0.4345E-4  -.9927     0.1088E-3  -.9834   
 0.3604     0.4356E-4  -.9927     0.1092E-3  -.9834   
 0.3754     0.4368E-4  -.9927     0.1096E-3  -.9834   
 0.3904     0.4379E-4  -.9927     0.1101E-3  -.9834   
 0.4054     0.4391E-4  -.9927     0.1105E-3  -.9834   
 0.4204     0.4402E-4  -.9927     0.1109E-3  -.9834   
 0.4354     0.4414E-4  -.9927     0.1114E-3  -.9834   
 0.4505     0.4425E-4  -.9927     0.1118E-3  -.9834   
 0.4655     0.4437E-4  -.9927     0.1122E-3  -.9834   
 0.4805     0.4449E-4  -.9927     0.1127E-3  -.9834   
 0.4955     0.4461E-4  -.9927     0.1131E-3  -.9834   
 0.5105     0.4473E-4  -.9927     0.1136E-3  -.9834   
 0.5255     0.4484E-4  -.9927     0.1140E-3  -.9833   
 0.5405     0.4496E-4  -.9927     0.1145E-3  -.9833   
 0.5556     0.4508E-4  -.9927     0.1149E-3  -.9833   
 0.5706     0.4520E-4  -.9927     0.1154E-3  -.9833   
 0.5856     0.4533E-4  -.9927     0.1159E-3  -.9833   
 0.6006     0.4545E-4  -.9927     0.1163E-3  -.9833   
 0.6156     0.4557E-4  -.9927     0.1168E-3  -.9833   
 0.6306     0.4569E-4  -.9927     0.1173E-3  -.9833   
 0.6456     0.4581E-4  -.9927     0.1177E-3  -.9833   
 0.6607     0.4594E-4  -.9927     0.1182E-3  -.9833   
 0.6757     0.4606E-4  -.9927     0.1187E-3  -.9833   
 0.6907     0.4619E-4  -.9927     0.1192E-3  -.9833   
 0.7057     0.4631E-4  -.9927     0.1197E-3  -.9833   
 0.7207     0.4644E-4  -.9927     0.1201E-3  -.9833   
 0.7357     0.4656E-4  -.9927     0.1206E-3  -.9833   
 0.7508     0.4669E-4  -.9927     0.1211E-3  -.9833   
 0.7658     0.4682E-4  -.9927     0.1216E-3  -.9833   
 0.7808     0.4694E-4  -.9927     0.1221E-3  -.9833   
 0.7958     0.4707E-4  -.9927     0.1226E-3  -.9833   
 0.8108     0.4720E-4  -.9927     0.1231E-3  -.9833   
 0.8258     0.4733E-4  -.9927     0.1236E-3  -.9833   
 0.8408     0.4746E-4  -.9927     0.1242E-3  -.9833   
 0.8559     0.4759E-4  -.9927     0.1247E-3  -.9833   
 0.8709     0.4772E-4  -.9927     0.1252E-3  -.9833   
 0.8859     0.4785E-4  -.9927     0.1257E-3  -.9833   
 0.9009     0.4799E-4  -.9927     0.1262E-3  -.9832   
 0.9159     0.4812E-4  -.9927     0.1268E-3  -.9832   
 0.9309     0.4825E-4  -.9927     0.1273E-3  -.9832   
 0.9459     0.4838E-4  -.9927     0.1278E-3  -.9832   
 0.9610     0.4852E-4  -.9927     0.1284E-3  -.9832   
 0.9760     0.4865E-4  -.9927     0.1289E-3  -.9832   
 0.9910     0.4879E-4  -.9927     0.1294E-3  -.9832   
  1.006     0.4893E-4  -.9927     0.1300E-3  -.9832   
  1.021     0.4906E-4  -.9927     0.1305E-3  -.9832   
  1.036     0.4920E-4  -.9927     0.1311E-3  -.9832   
  1.051     0.4934E-4  -.9927     0.1317E-3  -.9832   
  1.066     0.4948E-4  -.9927     0.1322E-3  -.9832   
  1.081     0.4962E-4  -.9927     0.1328E-3  -.9832   
  1.096     0.4975E-4  -.9927     0.1334E-3  -.9832   
  1.111     0.4990E-4  -.9927     0.1339E-3  -.9832   
  1.126     0.5004E-4  -.9927     0.1345E-3  -.9831   
  1.141     0.5018E-4  -.9927     0.1351E-3  -.9831   
  1.156     0.5032E-4  -.9927     0.1357E-3  -.9831   
  1.171     0.5046E-4  -.9927     0.1363E-3  -.9831   
  1.186     0.5061E-4  -.9927     0.1368E-3  -.9831   
  1.201     0.5075E-4  -.9927     0.1374E-3  -.9831   
  1.216     0.5090E-4  -.9927     0.1380E-3  -.9831   
  1.231     0.5104E-4  -.9927     0.1386E-3  -.9831   
  1.246     0.5119E-4  -.9927     0.1392E-3  -.9831   
  1.261     0.5133E-4  -.9927     0.1399E-3  -.9831   
  1.276     0.5148E-4  -.9927     0.1405E-3  -.9831   
  1.291     0.5163E-4  -.9927     0.1411E-3  -.9830   
  1.306     0.5178E-4  -.9927     0.1417E-3  -.9830   
  1.321     0.5193E-4  -.9927     0.1423E-3  -.9830   
  1.336     0.5208E-4  -.9927     0.1430E-3  -.9830   
  1.351     0.5223E-4  -.9927     0.1436E-3  -.9830   
  1.366     0.5238E-4  -.9927     0.1442E-3  -.9830   
  1.381     0.5253E-4  -.9927     0.1449E-3  -.9830   
  1.396     0.5268E-4  -.9927     0.1455E-3  -.9830   
  1.411     0.5284E-4  -.9927     0.1462E-3  -.9830   
  1.426     0.5299E-4  -.9927     0.1468E-3  -.9830   
  1.441     0.5315E-4  -.9927     0.1475E-3  -.9830   
  1.456     0.5330E-4  -.9927     0.1482E-3  -.9829   
  1.471     0.5346E-4  -.9927     0.1488E-3  -.9829   
  1.486     0.5361E-4  -.9927     0.1495E-3  -.9829   
  1.502     0.5377E-4  -.9927     0.1502E-3  -.9829   
  1.517     0.5393E-4  -.9927     0.1509E-3  -.9829   
  1.532     0.5409E-4  -.9926     0.1516E-3  -.9829   
  1.547     0.5425E-4  -.9926     0.1523E-3  -.9829   
  1.562     0.5441E-4  -.9926     0.1530E-3  -.9829   
  1.577     0.5457E-4  -.9926     0.1537E-3  -.9828   
  1.592     0.5473E-4  -.9926     0.1544E-3  -.9828   
  1.607     0.5490E-4  -.9926     0.1551E-3  -.9828   
  1.622     0.5506E-4  -.9926     0.1558E-3  -.9828   
  1.637     0.5522E-4  -.9926     0.1565E-3  -.9828   
  1.652     0.5539E-4  -.9926     0.1572E-3  -.9828   
  1.667     0.5556E-4  -.9926     0.1580E-3  -.9828   
  1.682     0.5572E-4  -.9926     0.1587E-3  -.9828   
  1.697     0.5589E-4  -.9926     0.1595E-3  -.9827   
  1.712     0.5606E-4  -.9926     0.1602E-3  -.9827   
  1.727     0.5623E-4  -.9926     0.1610E-3  -.9827   
  1.742     0.5640E-4  -.9926     0.1617E-3  -.9827   
  1.757     0.5657E-4  -.9926     0.1625E-3  -.9827   
  1.772     0.5674E-4  -.9926     0.1632E-3  -.9827   
  1.787     0.5691E-4  -.9926     0.1640E-3  -.9827   
  1.802     0.5709E-4  -.9926     0.1648E-3  -.9826   
  1.817     0.5726E-4  -.9926     0.1656E-3  -.9826   
  1.832     0.5743E-4  -.9926     0.1664E-3  -.9826   
  1.847     0.5761E-4  -.9926     0.1672E-3  -.9826   
  1.862     0.5779E-4  -.9926     0.1680E-3  -.9826   
  1.877     0.5796E-4  -.9926     0.1688E-3  -.9826   
  1.892     0.5814E-4  -.9926     0.1696E-3  -.9826   
  1.907     0.5832E-4  -.9926     0.1704E-3  -.9825   
  1.922     0.5850E-4  -.9926     0.1712E-3  -.9825   
  1.937     0.5868E-4  -.9926     0.1721E-3  -.9825   
  1.952     0.5886E-4  -.9926     0.1729E-3  -.9825   
  1.967     0.5905E-4  -.9926     0.1738E-3  -.9825   
  1.982     0.5923E-4  -.9926     0.1746E-3  -.9825   
  1.997     0.5941E-4  -.9926     0.1755E-3  -.9824   
  2.012     0.5960E-4  -.9926     0.1763E-3  -.9824   
  2.027     0.5979E-4  -.9925     0.1772E-3  -.9824   
  2.042     0.5997E-4  -.9925     0.1781E-3  -.9824   
  2.057     0.6016E-4  -.9925     0.1790E-3  -.9824   
  2.072     0.6035E-4  -.9925     0.1799E-3  -.9824   
  2.087     0.6054E-4  -.9925     0.1807E-3  -.9823   
  2.102     0.6073E-4  -.9925     0.1816E-3  -.9823   
  2.117     0.6092E-4  -.9925     0.1826E-3  -.9823   
  2.132     0.6112E-4  -.9925     0.1835E-3  -.9823   
  2.147     0.6131E-4  -.9925     0.1844E-3  -.9823   
  2.162     0.6150E-4  -.9925     0.1853E-3  -.9823   
  2.177     0.6170E-4  -.9925     0.1863E-3  -.9822   
  2.192     0.6190E-4  -.9925     0.1872E-3  -.9822   
  2.207     0.6209E-4  -.9925     0.1882E-3  -.9822   
  2.222     0.6229E-4  -.9925     0.1891E-3  -.9822   
  2.237     0.6249E-4  -.9925     0.1901E-3  -.9822   
  2.252     0.6269E-4  -.9925     0.1911E-3  -.9821   
  2.267     0.6289E-4  -.9925     0.1920E-3  -.9821   
  2.282     0.6310E-4  -.9925     0.1930E-3  -.9821   
  2.297     0.6330E-4  -.9925     0.1940E-3  -.9821   
  2.312     0.6351E-4  -.9925     0.1950E-3  -.9821   
  2.327     0.6371E-4  -.9925     0.1960E-3  -.9820   
  2.342     0.6392E-4  -.9925     0.1971E-3  -.9820   
  2.357     0.6413E-4  -.9925     0.1981E-3  -.9820   
  2.372     0.6433E-4  -.9925     0.1991E-3  -.9820   
  2.387     0.6454E-4  -.9924     0.2002E-3  -.9820   
  2.402     0.6476E-4  -.9924     0.2012E-3  -.9819   
  2.417     0.6497E-4  -.9924     0.2023E-3  -.9819   
  2.432     0.6518E-4  -.9924     0.2033E-3  -.9819   
  2.447     0.6540E-4  -.9924     0.2044E-3  -.9819   
  2.462     0.6561E-4  -.9924     0.2055E-3  -.9819   
  2.477     0.6583E-4  -.9924     0.2066E-3  -.9818   
  2.492     0.6605E-4  -.9924     0.2077E-3  -.9818   
  2.508     0.6626E-4  -.9924     0.2088E-3  -.9818   
  2.523     0.6648E-4  -.9924     0.2099E-3  -.9818   
  2.538     0.6671E-4  -.9924     0.2111E-3  -.9817   
  2.553     0.6693E-4  -.9924     0.2122E-3  -.9817   
  2.568     0.6715E-4  -.9924     0.2133E-3  -.9817   
  2.583     0.6738E-4  -.9924     0.2145E-3  -.9817   
  2.598     0.6760E-4  -.9924     0.2157E-3  -.9817   
  2.613     0.6783E-4  -.9924     0.2168E-3  -.9816   
  2.628     0.6806E-4  -.9924     0.2180E-3  -.9816   
  2.643     0.6829E-4  -.9924     0.2192E-3  -.9816   
  2.658     0.6852E-4  -.9924     0.2204E-3  -.9816   
  2.673     0.6875E-4  -.9924     0.2217E-3  -.9815   
  2.688     0.6898E-4  -.9924     0.2229E-3  -.9815   
  2.703     0.6922E-4  -.9923     0.2241E-3  -.9815   
  2.718     0.6945E-4  -.9923     0.2254E-3  -.9815   
  2.733     0.6969E-4  -.9923     0.2266E-3  -.9814   
  2.748     0.6993E-4  -.9923     0.2279E-3  -.9814   
  2.763     0.7017E-4  -.9923     0.2292E-3  -.9814   
  2.778     0.7041E-4  -.9923     0.2304E-3  -.9814   
  2.793     0.7065E-4  -.9923     0.2317E-3  -.9813   
  2.808     0.7089E-4  -.9923     0.2331E-3  -.9813   
  2.823     0.7114E-4  -.9923     0.2344E-3  -.9813   
  2.838     0.7139E-4  -.9923     0.2357E-3  -.9813   
  2.853     0.7163E-4  -.9923     0.2371E-3  -.9812   
  2.868     0.7188E-4  -.9923     0.2384E-3  -.9812   
  2.883     0.7213E-4  -.9923     0.2398E-3  -.9812   
  2.898     0.7238E-4  -.9923     0.2412E-3  -.9811   
  2.913     0.7264E-4  -.9923     0.2426E-3  -.9811   
  2.928     0.7289E-4  -.9923     0.2440E-3  -.9811   
  2.943     0.7315E-4  -.9923     0.2454E-3  -.9811   
  2.958     0.7341E-4  -.9922     0.2468E-3  -.9810   
  2.973     0.7366E-4  -.9922     0.2482E-3  -.9810   
  2.988     0.7392E-4  -.9922     0.2497E-3  -.9810   
  3.003     0.7419E-4  -.9922     0.2512E-3  -.9809   
  3.018     0.7445E-4  -.9922     0.2526E-3  -.9809   
  3.033     0.7471E-4  -.9922     0.2541E-3  -.9809   
  3.048     0.7498E-4  -.9922     0.2556E-3  -.9809   
  3.063     0.7525E-4  -.9922     0.2572E-3  -.9808   
  3.078     0.7552E-4  -.9922     0.2587E-3  -.9808   
  3.093     0.7579E-4  -.9922     0.2602E-3  -.9808   
  3.108     0.7606E-4  -.9922     0.2618E-3  -.9807   
  3.123     0.7633E-4  -.9922     0.2634E-3  -.9807   
  3.138     0.7661E-4  -.9922     0.2650E-3  -.9807   
  3.153     0.7689E-4  -.9922     0.2666E-3  -.9806   
  3.168     0.7716E-4  -.9922     0.2682E-3  -.9806   
  3.183     0.7744E-4  -.9922     0.2698E-3  -.9806   
  3.198     0.7773E-4  -.9921     0.2715E-3  -.9805   
  3.213     0.7801E-4  -.9921     0.2731E-3  -.9805   
  3.228     0.7829E-4  -.9921     0.2748E-3  -.9805   
  3.243     0.7858E-4  -.9921     0.2765E-3  -.9804   
  3.258     0.7887E-4  -.9921     0.2782E-3  -.9804   
  3.273     0.7916E-4  -.9921     0.2799E-3  -.9804   
  3.288     0.7945E-4  -.9921     0.2817E-3  -.9803   
  3.303     0.7974E-4  -.9921     0.2834E-3  -.9803   
  3.318     0.8004E-4  -.9921     0.2852E-3  -.9803   
  3.333     0.8034E-4  -.9921     0.2870E-3  -.9802   
  3.348     0.8064E-4  -.9921     0.2888E-3  -.9802   
  3.363     0.8094E-4  -.9921     0.2906E-3  -.9802   
  3.378     0.8124E-4  -.9921     0.2925E-3  -.9801   
  3.393     0.8154E-4  -.9921     0.2943E-3  -.9801   
  3.408     0.8185E-4  -.9921     0.2962E-3  -.9800   
  3.423     0.8216E-4  -.9920     0.2981E-3  -.9800   
  3.438     0.8247E-4  -.9920     0.3000E-3  -.9800   
  3.453     0.8278E-4  -.9920     0.3019E-3  -.9799   
  3.468     0.8309E-4  -.9920     0.3039E-3  -.9799   
  3.483     0.8340E-4  -.9920     0.3059E-3  -.9799   
  3.498     0.8372E-4  -.9920     0.3078E-3  -.9798   
  3.514     0.8404E-4  -.9920     0.3099E-3  -.9798   
  3.529     0.8436E-4  -.9920     0.3119E-3  -.9797   
  3.544     0.8468E-4  -.9920     0.3139E-3  -.9797   
  3.559     0.8501E-4  -.9920     0.3160E-3  -.9797   
  3.574     0.8534E-4  -.9920     0.3181E-3  -.9796   
  3.589     0.8566E-4  -.9920     0.3202E-3  -.9796   
  3.604     0.8600E-4  -.9920     0.3223E-3  -.9795   
  3.619     0.8633E-4  -.9919     0.3245E-3  -.9795   
  3.634     0.8666E-4  -.9919     0.3267E-3  -.9795   
  3.649     0.8700E-4  -.9919     0.3289E-3  -.9794   
  3.664     0.8734E-4  -.9919     0.3311E-3  -.9794   
  3.679     0.8768E-4  -.9919     0.3333E-3  -.9793   
  3.694     0.8802E-4  -.9919     0.3356E-3  -.9793   
  3.709     0.8837E-4  -.9919     0.3379E-3  -.9792   
  3.724     0.8872E-4  -.9919     0.3402E-3  -.9792   
  3.739     0.8907E-4  -.9919     0.3425E-3  -.9792   
  3.754     0.8942E-4  -.9919     0.3449E-3  -.9791   
  3.769     0.8977E-4  -.9919     0.3473E-3  -.9791   
  3.784     0.9013E-4  -.9919     0.3497E-3  -.9790   
  3.799     0.9049E-4  -.9918     0.3521E-3  -.9790   
  3.814     0.9085E-4  -.9918     0.3546E-3  -.9789   
  3.829     0.9121E-4  -.9918     0.3571E-3  -.9789   
  3.844     0.9158E-4  -.9918     0.3596E-3  -.9788   
  3.859     0.9195E-4  -.9918     0.3621E-3  -.9788   
  3.874     0.9232E-4  -.9918     0.3647E-3  -.9787   
  3.889     0.9269E-4  -.9918     0.3673E-3  -.9787   
  3.904     0.9307E-4  -.9918     0.3699E-3  -.9786   
  3.919     0.9344E-4  -.9918     0.3725E-3  -.9786   
  3.934     0.9382E-4  -.9918     0.3752E-3  -.9785   
  3.949     0.9421E-4  -.9918     0.3779E-3  -.9785   
  3.964     0.9459E-4  -.9917     0.3806E-3  -.9784   
  3.979     0.9498E-4  -.9917     0.3834E-3  -.9784   
  3.994     0.9537E-4  -.9917     0.3862E-3  -.9783   
  4.009     0.9576E-4  -.9917     0.3890E-3  -.9783   
  4.024     0.9616E-4  -.9917     0.3919E-3  -.9782   
  4.039     0.9655E-4  -.9917     0.3948E-3  -.9782   
  4.054     0.9696E-4  -.9917     0.3977E-3  -.9781   
  4.069     0.9736E-4  -.9917     0.4007E-3  -.9781   
  4.084     0.9776E-4  -.9917     0.4036E-3  -.9780   
  4.099     0.9817E-4  -.9917     0.4067E-3  -.9780   
  4.114     0.9858E-4  -.9916     0.4097E-3  -.9779   
  4.129     0.9900E-4  -.9916     0.4128E-3  -.9779   
  4.144     0.9942E-4  -.9916     0.4159E-3  -.9778   
  4.159     0.9984E-4  -.9916     0.4191E-3  -.9778   
  4.174     0.1003E-3  -.9916     0.4223E-3  -.9777   
  4.189     0.1007E-3  -.9916     0.4255E-3  -.9777   
  4.204     0.1011E-3  -.9916     0.4288E-3  -.9776   
  4.219     0.1015E-3  -.9916     0.4321E-3  -.9775   
  4.234     0.1020E-3  -.9916     0.4355E-3  -.9775   
  4.249     0.1024E-3  -.9916     0.4389E-3  -.9774   
  4.264     0.1029E-3  -.9915     0.4423E-3  -.9774   
  4.279     0.1033E-3  -.9915     0.4457E-3  -.9773   
  4.294     0.1037E-3  -.9915     0.4493E-3  -.9772   
  4.309     0.1042E-3  -.9915     0.4528E-3  -.9772   
  4.324     0.1046E-3  -.9915     0.4564E-3  -.9771   
  4.339     0.1051E-3  -.9915     0.4600E-3  -.9771   
  4.354     0.1056E-3  -.9915     0.4637E-3  -.9770   
  4.369     0.1060E-3  -.9915     0.4674E-3  -.9769   
  4.384     0.1065E-3  -.9915     0.4712E-3  -.9769   
  4.399     0.1070E-3  -.9914     0.4750E-3  -.9768   
  4.414     0.1074E-3  -.9914     0.4789E-3  -.9767   
  4.429     0.1079E-3  -.9914     0.4828E-3  -.9767   
  4.444     0.1084E-3  -.9914     0.4868E-3  -.9766   
  4.459     0.1089E-3  -.9914     0.4908E-3  -.9765   
  4.474     0.1094E-3  -.9914     0.4948E-3  -.9765   
  4.489     0.1098E-3  -.9914     0.4989E-3  -.9764   
  4.505     0.1103E-3  -.9914     0.5031E-3  -.9763   
  4.520     0.1108E-3  -.9914     0.5073E-3  -.9763   
  4.535     0.1113E-3  -.9913     0.5116E-3  -.9762   
  4.550     0.1118E-3  -.9913     0.5159E-3  -.9761   
  4.565     0.1123E-3  -.9913     0.5203E-3  -.9760   
  4.580     0.1129E-3  -.9913     0.5247E-3  -.9760   
  4.595     0.1134E-3  -.9913     0.5292E-3  -.9759   
  4.610     0.1139E-3  -.9913     0.5337E-3  -.9758   
  4.625     0.1144E-3  -.9913     0.5383E-3  -.9758   
  4.640     0.1149E-3  -.9913     0.5430E-3  -.9757   
  4.655     0.1155E-3  -.9912     0.5477E-3  -.9756   
  4.670     0.1160E-3  -.9912     0.5525E-3  -.9755   
  4.685     0.1165E-3  -.9912     0.5574E-3  -.9755   
  4.700     0.1171E-3  -.9912     0.5623E-3  -.9754   
  4.715     0.1176E-3  -.9912     0.5672E-3  -.9753   
  4.730     0.1182E-3  -.9912     0.5723E-3  -.9752   
  4.745     0.1187E-3  -.9912     0.5774E-3  -.9751   
  4.760     0.1193E-3  -.9912     0.5826E-3  -.9751   
  4.775     0.1199E-3  -.9911     0.5879E-3  -.9750   
  4.790     0.1204E-3  -.9911     0.5932E-3  -.9749   
  4.805     0.1210E-3  -.9911     0.5986E-3  -.9748   
  4.820     0.1216E-3  -.9911     0.6040E-3  -.9747   
  4.835     0.1221E-3  -.9911     0.6096E-3  -.9746   
  4.850     0.1227E-3  -.9911     0.6152E-3  -.9746   
  4.865     0.1233E-3  -.9911     0.6209E-3  -.9745   
  4.880     0.1239E-3  -.9911     0.6267E-3  -.9744   
  4.895     0.1245E-3  -.9910     0.6326E-3  -.9743   
  4.910     0.1251E-3  -.9910     0.6385E-3  -.9742   
  4.925     0.1257E-3  -.9910     0.6446E-3  -.9741   
  4.940     0.1263E-3  -.9910     0.6507E-3  -.9740   
  4.955     0.1270E-3  -.9910     0.6569E-3  -.9739   
  4.970     0.1276E-3  -.9910     0.6632E-3  -.9738   
  4.985     0.1282E-3  -.9910     0.6696E-3  -.9737   
  5.000     0.1288E-3  -.9909     0.6761E-3  -.9736   
  5.015     0.1295E-3  -.9909     0.6827E-3  -.9735   
  5.030     0.1301E-3  -.9909     0.6893E-3  -.9735   
  5.045     0.1308E-3  -.9909     0.6961E-3  -.9734   
  5.060     0.1314E-3  -.9909     0.7030E-3  -.9733   
  5.075     0.1321E-3  -.9909     0.7099E-3  -.9732   
  5.090     0.1327E-3  -.9909     0.7170E-3  -.9731   
  5.105     0.1334E-3  -.9908     0.7242E-3  -.9729   
  5.120     0.1341E-3  -.9908     0.7315E-3  -.9728   
  5.135     0.1348E-3  -.9908     0.7389E-3  -.9727   
  5.150     0.1355E-3  -.9908     0.7464E-3  -.9726   
  5.165     0.1361E-3  -.9908     0.7541E-3  -.9725   
  5.180     0.1368E-3  -.9908     0.7618E-3  -.9724   
  5.195     0.1375E-3  -.9907     0.7697E-3  -.9723   
  5.210     0.1383E-3  -.9907     0.7777E-3  -.9722   
  5.225     0.1390E-3  -.9907     0.7858E-3  -.9721   
  5.240     0.1397E-3  -.9907     0.7941E-3  -.9720   
  5.255     0.1404E-3  -.9907     0.8025E-3  -.9719   
  5.270     0.1412E-3  -.9907     0.8110E-3  -.9717   
  5.285     0.1419E-3  -.9907     0.8197E-3  -.9716   
  5.300     0.1426E-3  -.9906     0.8285E-3  -.9715   
  5.315     0.1434E-3  -.9906     0.8374E-3  -.9714   
  5.330     0.1442E-3  -.9906     0.8465E-3  -.9713   
  5.345     0.1449E-3  -.9906     0.8557E-3  -.9712   
  5.360     0.1457E-3  -.9906     0.8651E-3  -.9710   
  5.375     0.1465E-3  -.9906     0.8747E-3  -.9709   
  5.390     0.1473E-3  -.9905     0.8844E-3  -.9708   
  5.405     0.1480E-3  -.9905     0.8942E-3  -.9706   
  5.420     0.1488E-3  -.9905     0.9043E-3  -.9705   
  5.435     0.1496E-3  -.9905     0.9145E-3  -.9704   
  5.450     0.1505E-3  -.9905     0.9249E-3  -.9703   
  5.465     0.1513E-3  -.9904     0.9354E-3  -.9701   
  5.480     0.1521E-3  -.9904     0.9462E-3  -.9700   
  5.495     0.1529E-3  -.9904     0.9571E-3  -.9699   
  5.511     0.1538E-3  -.9904     0.9682E-3  -.9697   
  5.526     0.1546E-3  -.9904     0.9795E-3  -.9696   
  5.541     0.1555E-3  -.9904     0.9910E-3  -.9694   
  5.556     0.1564E-3  -.9903     0.1003E-2  -.9693   
  5.571     0.1572E-3  -.9903     0.1015E-2  -.9691   
  5.586     0.1581E-3  -.9903     0.1027E-2  -.9690   
  5.601     0.1590E-3  -.9903     0.1039E-2  -.9688   
  5.616     0.1599E-3  -.9903     0.1052E-2  -.9687   
  5.631     0.1608E-3  -.9902     0.1065E-2  -.9685   
  5.646     0.1617E-3  -.9902     0.1078E-2  -.9684   
  5.661     0.1627E-3  -.9902     0.1091E-2  -.9682   
  5.676     0.1636E-3  -.9902     0.1104E-2  -.9681   
  5.691     0.1645E-3  -.9902     0.1118E-2  -.9679   
  5.706     0.1655E-3  -.9901     0.1132E-2  -.9677   
  5.721     0.1664E-3  -.9901     0.1147E-2  -.9676   
  5.736     0.1674E-3  -.9901     0.1161E-2  -.9674   
  5.751     0.1684E-3  -.9901     0.1176E-2  -.9672   
  5.766     0.1694E-3  -.9901     0.1191E-2  -.9671   
  5.781     0.1704E-3  -.9900     0.1207E-2  -.9669   
  5.796     0.1714E-3  -.9900     0.1223E-2  -.9667   
  5.811     0.1724E-3  -.9900     0.1239E-2  -.9665   
  5.826     0.1734E-3  -.9900     0.1255E-2  -.9664   
  5.841     0.1744E-3  -.9900     0.1272E-2  -.9662   
  5.856     0.1755E-3  -.9899     0.1289E-2  -.9660   
  5.871     0.1765E-3  -.9899     0.1306E-2  -.9658   
  5.886     0.1776E-3  -.9899     0.1324E-2  -.9656   
  5.901     0.1787E-3  -.9899     0.1342E-2  -.9654   
  5.916     0.1798E-3  -.9899     0.1361E-2  -.9652   
  5.931     0.1809E-3  -.9898     0.1380E-2  -.9650   
  5.946     0.1820E-3  -.9898     0.1399E-2  -.9648   
  5.961     0.1831E-3  -.9898     0.1419E-2  -.9646   
  5.976     0.1842E-3  -.9898     0.1439E-2  -.9644   
  5.991     0.1854E-3  -.9897     0.1460E-2  -.9642   
  6.006     0.1865E-3  -.9897     0.1481E-2  -.9640   
  6.021     0.1877E-3  -.9897     0.1502E-2  -.9638   
  6.036     0.1889E-3  -.9897     0.1524E-2  -.9635   
  6.051     0.1901E-3  -.9897     0.1547E-2  -.9633   
  6.066     0.1913E-3  -.9896     0.1569E-2  -.9631   
  6.081     0.1925E-3  -.9896     0.1593E-2  -.9629   
  6.096     0.1937E-3  -.9896     0.1617E-2  -.9626   
  6.111     0.1949E-3  -.9896     0.1641E-2  -.9624   
  6.126     0.1962E-3  -.9895     0.1667E-2  -.9621   
  6.141     0.1975E-3  -.9895     0.1692E-2  -.9619   
  6.156     0.1987E-3  -.9895     0.1719E-2  -.9616   
  6.171     0.2000E-3  -.9895     0.1746E-2  -.9614   
  6.186     0.2013E-3  -.9894     0.1773E-2  -.9611   
  6.201     0.2027E-3  -.9894     0.1801E-2  -.9609   
  6.216     0.2040E-3  -.9894     0.1830E-2  -.9606   
  6.231     0.2054E-3  -.9894     0.1860E-2  -.9603   
  6.246     0.2067E-3  -.9893     0.1890E-2  -.9601   
  6.261     0.2081E-3  -.9893     0.1921E-2  -.9598   
  6.276     0.2095E-3  -.9893     0.1953E-2  -.9595   
  6.291     0.2109E-3  -.9893     0.1986E-2  -.9592   
  6.306     0.2123E-3  -.9892     0.2019E-2  -.9589   
  6.321     0.2138E-3  -.9892     0.2054E-2  -.9586   
  6.336     0.2152E-3  -.9892     0.2089E-2  -.9583   
  6.351     0.2167E-3  -.9892     0.2125E-2  -.9580   
  6.366     0.2182E-3  -.9891     0.2162E-2  -.9577   
  6.381     0.2197E-3  -.9891     0.2200E-2  -.9574   
  6.396     0.2213E-3  -.9891     0.2239E-2  -.9570   
  6.411     0.2228E-3  -.9890     0.2279E-2  -.9567   
  6.426     0.2244E-3  -.9890     0.2321E-2  -.9564   
  6.441     0.2259E-3  -.9890     0.2363E-2  -.9560   
  6.456     0.2275E-3  -.9890     0.2407E-2  -.9557   
  6.471     0.2292E-3  -.9889     0.2451E-2  -.9553   
  6.486     0.2308E-3  -.9889     0.2498E-2  -.9550   
  6.502     0.2325E-3  -.9889     0.2545E-2  -.9546   
  6.517     0.2341E-3  -.9888     0.2594E-2  -.9542   
  6.532     0.2358E-3  -.9888     0.2644E-2  -.9538   
  6.547     0.2376E-3  -.9888     0.2695E-2  -.9534   
  6.562     0.2393E-3  -.9887     0.2748E-2  -.9530   
  6.577     0.2411E-3  -.9887     0.2803E-2  -.9526   
  6.592     0.2428E-3  -.9887     0.2860E-2  -.9522   
  6.607     0.2446E-3  -.9887     0.2918E-2  -.9518   
  6.622     0.2465E-3  -.9886     0.2978E-2  -.9513   
  6.637     0.2483E-3  -.9886     0.3039E-2  -.9509   
  6.652     0.2502E-3  -.9886     0.3103E-2  -.9504   
  6.667     0.2521E-3  -.9885     0.3169E-2  -.9500   
  6.682     0.2540E-3  -.9885     0.3237E-2  -.9495   
  6.697     0.2559E-3  -.9885     0.3307E-2  -.9490   
  6.712     0.2579E-3  -.9884     0.3379E-2  -.9485   
  6.727     0.2599E-3  -.9884     0.3454E-2  -.9480   
  6.742     0.2619E-3  -.9884     0.3531E-2  -.9475   
  6.757     0.2640E-3  -.9883     0.3611E-2  -.9470   
  6.772     0.2660E-3  -.9883     0.3694E-2  -.9465   
  6.787     0.2681E-3  -.9883     0.3780E-2  -.9459   
  6.802     0.2703E-3  -.9882     0.3868E-2  -.9453   
  6.817     0.2724E-3  -.9882     0.3960E-2  -.9448   
  6.832     0.2746E-3  -.9882     0.4055E-2  -.9442   
  6.847     0.2768E-3  -.9881     0.4154E-2  -.9436   
  6.862     0.2791E-3  -.9881     0.4256E-2  -.9430   
  6.877     0.2813E-3  -.9880     0.4362E-2  -.9423   
  6.892     0.2836E-3  -.9880     0.4472E-2  -.9417   
  6.907     0.2860E-3  -.9880     0.4586E-2  -.9410   
  6.922     0.2883E-3  -.9879     0.4705E-2  -.9403   
  6.937     0.2907E-3  -.9879     0.4828E-2  -.9396   
  6.952     0.2932E-3  -.9879     0.4956E-2  -.9389   
  6.967     0.2956E-3  -.9878     0.5090E-2  -.9382   
  6.982     0.2981E-3  -.9878     0.5229E-2  -.9374   
  6.997     0.3007E-3  -.9877     0.5373E-2  -.9366   
  7.012     0.3032E-3  -.9877     0.5524E-2  -.9358   
  7.027     0.3059E-3  -.9877     0.5681E-2  -.9350   
  7.042     0.3085E-3  -.9876     0.5845E-2  -.9342   
  7.057     0.3112E-3  -.9876     0.6016E-2  -.9333   
  7.072     0.3139E-3  -.9875     0.6195E-2  -.9324   
  7.087     0.3167E-3  -.9875     0.6382E-2  -.9315   
  7.102     0.3195E-3  -.9875     0.6578E-2  -.9305   
  7.117     0.3223E-3  -.9874     0.6782E-2  -.9296   
  7.132     0.3252E-3  -.9874     0.6997E-2  -.9286   
  7.147     0.3282E-3  -.9873     0.7221E-2  -.9275   
  7.162     0.3311E-3  -.9873     0.7457E-2  -.9264   
  7.177     0.3342E-3  -.9872     0.7705E-2  -.9253   
  7.192     0.3372E-3  -.9872     0.7964E-2  -.9242   
  7.207     0.3404E-3  -.9872     0.8238E-2  -.9230   
  7.222     0.3435E-3  -.9871     0.8525E-2  -.9218   
  7.237     0.3467E-3  -.9871     0.8828E-2  -.9205   
  7.252     0.3500E-3  -.9870     0.9147E-2  -.9192   
  7.267     0.3533E-3  -.9870     0.9484E-2  -.9179   
  7.282     0.3567E-3  -.9869     0.9839E-2  -.9165   
  7.297     0.3601E-3  -.9869     0.1022E-1  -.9150   
  7.312     0.3636E-3  -.9868     0.1061E-1  -.9135   
  7.327     0.3672E-3  -.9868     0.1103E-1  -.9120   
  7.342     0.3707E-3  -.9867     0.1148E-1  -.9103   
  7.357     0.3744E-3  -.9867     0.1196E-1  -.9086   
  7.372     0.3781E-3  -.9866     0.1246E-1  -.9069   
  7.387     0.3819E-3  -.9866     0.1300E-1  -.9051   
  7.402     0.3857E-3  -.9865     0.1357E-1  -.9032   
  7.417     0.3897E-3  -.9865     0.1418E-1  -.9012   
  7.432     0.3936E-3  -.9864     0.1483E-1  -.8991   
  7.447     0.3977E-3  -.9864     0.1553E-1  -.8969   
  7.462     0.4018E-3  -.9863     0.1628E-1  -.8947   
  7.477     0.4060E-3  -.9863     0.1708E-1  -.8923   
  7.492     0.4102E-3  -.9862     0.1795E-1  -.8898   
  7.508     0.4146E-3  -.9861     0.1888E-1  -.8872   
  7.523     0.4190E-3  -.9861     0.1988E-1  -.8845   
  7.538     0.4235E-3  -.9860     0.2097E-1  -.8816   
  7.553     0.4281E-3  -.9860     0.2215E-1  -.8786   
  7.568     0.4327E-3  -.9859     0.2342E-1  -.8755   
  7.583     0.4375E-3  -.9859     0.2481E-1  -.8721   
  7.598     0.4423E-3  -.9858     0.2633E-1  -.8686   
  7.613     0.4472E-3  -.9857     0.2799E-1  -.8649   
  7.628     0.4522E-3  -.9857     0.2980E-1  -.8610   
  7.643     0.4574E-3  -.9856     0.3180E-1  -.8568   
  7.658     0.4626E-3  -.9855     0.3400E-1  -.8524   
  7.673     0.4679E-3  -.9855     0.3643E-1  -.8477   
  7.688     0.4733E-3  -.9854     0.3912E-1  -.8427   
  7.703     0.4788E-3  -.9854     0.4212E-1  -.8374   
  7.718     0.4844E-3  -.9853     0.4546E-1  -.8318   
  7.733     0.4902E-3  -.9852     0.4921E-1  -.8258   
  7.748     0.4961E-3  -.9852     0.5343E-1  -.8193   
  7.763     0.5020E-3  -.9851     0.5820E-1  -.8125   
  7.778     0.5081E-3  -.9850     0.6360E-1  -.8051   
  7.793     0.5144E-3  -.9849     0.6977E-1  -.7973   
  7.808     0.5207E-3  -.9849     0.7683E-1  -.7889   
  7.823     0.5272E-3  -.9848     0.8496E-1  -.7799   
  7.838     0.5338E-3  -.9847     0.9438E-1  -.7703   
  7.853     0.5406E-3  -.9847     0.1053     -.7602   
  7.868     0.5475E-3  -.9846     0.1182     -.7494   
  7.883     0.5546E-3  -.9845     0.1333     -.7382   
  7.898     0.5618E-3  -.9844     0.1511     -.7267   
  7.913     0.5692E-3  -.9843     0.1724     -.7151   
  7.928     0.5768E-3  -.9843     0.1977     -.7040   
  7.943     0.5845E-3  -.9842     0.2280     -.6939   
  7.958     0.5924E-3  -.9841     0.2640     -.6862   
  7.973     0.6005E-3  -.9840     0.3066     -.6825   
  7.988     0.6088E-3  -.9839     0.3558     -.6852   
  8.003     0.6172E-3  -.9839     0.4113     -.6980   
  8.018     0.6259E-3  -.9838     0.4706     -.7250   
  8.033     0.6348E-3  -.9837     0.5292     -.7703   
  8.048     0.6439E-3  -.9836     0.5799     -.8357   
  8.063     0.6532E-3  -.9835     0.6134     -.9186   
  8.078     0.6627E-3  -.9834     0.6221     -1.011   
  8.093     0.6725E-3  -.9833     0.6037     -1.101   
  8.108     0.6825E-3  -.9832     0.5626     -1.178   
  8.123     0.6928E-3  -.9831     0.5074     -1.236   
  8.138     0.7034E-3  -.9830     0.4472     -1.275   
  8.153     0.7142E-3  -.9829     0.3886     -1.296   
  8.168     0.7253E-3  -.9828     0.3352     -1.305   
  8.183     0.7367E-3  -.9827     0.2886     -1.305   
  8.198     0.7485E-3  -.9826     0.2488     -1.299   
  8.213     0.7605E-3  -.9825     0.2153     -1.290   
  8.228     0.7729E-3  -.9824     0.1872     -1.280   
  8.243     0.7856E-3  -.9823     0.1636     -1.268   
  8.258     0.7987E-3  -.9822     0.1438     -1.257   
  8.273     0.8121E-3  -.9821     0.1271     -1.245   
  8.288     0.8260E-3  -.9820     0.1130     -1.234   
  8.303     0.8402E-3  -.9818     0.1009     -1.223   
  8.318     0.8549E-3  -.9817     0.9062E-1  -1.213   
  8.333     0.8700E-3  -.9816     0.8173E-1  -1.204   
  8.348     0.8856E-3  -.9815     0.7404E-1  -1.195   
  8.363     0.9017E-3  -.9813     0.6735E-1  -1.187   
  8.378     0.9182E-3  -.9812     0.6150E-1  -1.179   
  8.393     0.9353E-3  -.9811     0.5635E-1  -1.172   
  8.408     0.9529E-3  -.9810     0.5181E-1  -1.166   
  8.423     0.9711E-3  -.9808     0.4778E-1  -1.159   
  8.438     0.9899E-3  -.9807     0.4420E-1  -1.153   
  8.453     0.1009E-2  -.9805     0.4100E-1  -1.148   
  8.468     0.1029E-2  -.9804     0.3812E-1  -1.143   
  8.483     0.1050E-2  -.9802     0.3554E-1  -1.138   
  8.498     0.1072E-2  -.9801     0.3321E-1  -1.133   
  8.514     0.1094E-2  -.9799     0.3109E-1  -1.129   
  8.529     0.1117E-2  -.9798     0.2917E-1  -1.125   
  8.544     0.1141E-2  -.9796     0.2742E-1  -1.121   
  8.559     0.1166E-2  -.9795     0.2583E-1  -1.117   
  8.574     0.1191E-2  -.9793     0.2436E-1  -1.114   
  8.589     0.1218E-2  -.9791     0.2302E-1  -1.111   
  8.604     0.1246E-2  -.9789     0.2179E-1  -1.107   
  8.619     0.1274E-2  -.9788     0.2065E-1  -1.105   
  8.634     0.1304E-2  -.9786     0.1960E-1  -1.102   
  8.649     0.1335E-2  -.9784     0.1863E-1  -1.099   
  8.664     0.1368E-2  -.9782     0.1773E-1  -1.096   
  8.679     0.1402E-2  -.9780     0.1689E-1  -1.094   
  8.694     0.1437E-2  -.9778     0.1612E-1  -1.092   
  8.709     0.1474E-2  -.9776     0.1539E-1  -1.089   
  8.724     0.1512E-2  -.9774     0.1472E-1  -1.087   
  8.739     0.1552E-2  -.9772     0.1408E-1  -1.085   
  8.754     0.1594E-2  -.9769     0.1349E-1  -1.083   
  8.769     0.1638E-2  -.9767     0.1294E-1  -1.081   
  8.784     0.1684E-2  -.9765     0.1242E-1  -1.079   
  8.799     0.1732E-2  -.9762     0.1193E-1  -1.078   
  8.814     0.1782E-2  -.9760     0.1147E-1  -1.076   
  8.829     0.1835E-2  -.9757     0.1104E-1  -1.074   
  8.844     0.1891E-2  -.9754     0.1064E-1  -1.073   
  8.859     0.1950E-2  -.9752     0.1025E-1  -1.071   
  8.874     0.2012E-2  -.9749     0.9890E-2  -1.070   
  8.889     0.2077E-2  -.9746     0.9547E-2  -1.068   
  8.904     0.2146E-2  -.9743     0.9224E-2  -1.067   
  8.919     0.2219E-2  -.9740     0.8918E-2  -1.066   
  8.934     0.2296E-2  -.9737     0.8628E-2  -1.065   
  8.949     0.2377E-2  -.9733     0.8353E-2  -1.063   
  8.964     0.2464E-2  -.9730     0.8093E-2  -1.062   
  8.979     0.2556E-2  -.9726     0.7845E-2  -1.061   
  8.994     0.2654E-2  -.9723     0.7611E-2  -1.060   
  9.009     0.2758E-2  -.9719     0.7388E-2  -1.059   
  9.024     0.2869E-2  -.9715     0.7176E-2  -1.058   
  9.039     0.2988E-2  -.9711     0.6975E-2  -1.057   
  9.054     0.3115E-2  -.9706     0.6783E-2  -1.056   
  9.069     0.3252E-2  -.9702     0.6601E-2  -1.055   
  9.084     0.3398E-2  -.9697     0.6428E-2  -1.054   
  9.099     0.3556E-2  -.9692     0.6263E-2  -1.053   
  9.114     0.3727E-2  -.9687     0.6106E-2  -1.052   
  9.129     0.3911E-2  -.9682     0.5957E-2  -1.051   
  9.144     0.4111E-2  -.9676     0.5815E-2  -1.050   
  9.159     0.4328E-2  -.9670     0.5680E-2  -1.049   
  9.174     0.4564E-2  -.9664     0.5552E-2  -1.048   
  9.189     0.4822E-2  -.9658     0.5431E-2  -1.048   
  9.204     0.5104E-2  -.9651     0.5315E-2  -1.047   
  9.219     0.5414E-2  -.9644     0.5206E-2  -1.046   
  9.234     0.5756E-2  -.9637     0.5103E-2  -1.045   
  9.249     0.6133E-2  -.9629     0.5005E-2  -1.045   
  9.264     0.6551E-2  -.9620     0.4912E-2  -1.044   
  9.279     0.7017E-2  -.9611     0.4826E-2  -1.043   
  9.294     0.7538E-2  -.9602     0.4744E-2  -1.042   
  9.309     0.8122E-2  -.9592     0.4668E-2  -1.042   
  9.324     0.8779E-2  -.9582     0.4598E-2  -1.041   
  9.339     0.9524E-2  -.9570     0.4532E-2  -1.040   
  9.354     0.1037E-1  -.9558     0.4472E-2  -1.040   
  9.369     0.1134E-1  -.9546     0.4418E-2  -1.039   
  9.384     0.1245E-1  -.9532     0.4369E-2  -1.038   
  9.399     0.1374E-1  -.9518     0.4326E-2  -1.038   
  9.414     0.1523E-1  -.9503     0.4288E-2  -1.037   
  9.429     0.1698E-1  -.9487     0.4257E-2  -1.037   
  9.444     0.1903E-1  -.9470     0.4233E-2  -1.036   
  9.459     0.2145E-1  -.9453     0.4215E-2  -1.035   
  9.474     0.2432E-1  -.9436     0.4205E-2  -1.035   
  9.489     0.2775E-1  -.9420     0.4203E-2  -1.034   
  9.505     0.3182E-1  -.9405     0.4209E-2  -1.033   
  9.520     0.3667E-1  -.9393     0.4225E-2  -1.033   
  9.535     0.4238E-1  -.9388     0.4251E-2  -1.032   
  9.550     0.4900E-1  -.9391     0.4290E-2  -1.032   
  9.565     0.5643E-1  -.9409     0.4341E-2  -1.031   
  9.580     0.6434E-1  -.9446     0.4408E-2  -1.030   
  9.595     0.7203E-1  -.9507     0.4491E-2  -1.030   
  9.610     0.7844E-1  -.9594     0.4595E-2  -1.029   
  9.625     0.8236E-1  -.9701     0.4721E-2  -1.029   
  9.640     0.8291E-1  -.9817     0.4874E-2  -1.028   
  9.655     0.7997E-1  -.9929     0.5059E-2  -1.027   
  9.670     0.7425E-1  -1.002     0.5282E-2  -1.027   
  9.685     0.6695E-1  -1.009     0.5549E-2  -1.026   
  9.700     0.5917E-1  -1.013     0.5870E-2  -1.025   
  9.715     0.5172E-1  -1.015     0.6256E-2  -1.025   
  9.730     0.4502E-1  -1.016     0.6722E-2  -1.024   
  9.745     0.3922E-1  -1.016     0.7283E-2  -1.023   
  9.760     0.3430E-1  -1.014     0.7959E-2  -1.023   
  9.775     0.3019E-1  -1.013     0.8775E-2  -1.022   
  9.790     0.2676E-1  -1.011     0.9753E-2  -1.021   
   9.80480    0.02393   -1.00907    0.01092   -1.02089
   9.81982    0.02158   -1.00711    0.01228   -1.02065
   9.83484    0.01963   -1.00516    0.01382   -1.02070
   9.84985    0.01801   -1.00324    0.01548   -1.02116
   9.86487    0.01668   -1.00137    0.01712   -1.02212
   9.87988    0.01558   -0.99956    0.01853   -1.02365
   9.89489    0.01467   -0.99779    0.01944   -1.02566
   9.90991    0.01394   -0.99607    0.01964   -1.02791
   9.92492    0.01336   -0.99440    0.01908   -1.03010
   9.93994    0.01291   -0.99275    0.01789   -1.03194
   9.95496    0.01258   -0.99114    0.01631   -1.03325
   9.96997    0.01237   -0.98954    0.01459   -1.03402
   9.98499    0.01225   -0.98796    0.01292   -1.03433
  10.00000    0.01224   -0.98638    0.01141   -1.03428
  10.01502    0.01233   -0.98479    0.01009   -1.03399
  10.03     0.1252E-1  -.9832     0.8957E-2  -1.034   
  10.05     0.1282E-1  -.9816     0.8004E-2  -1.033   
  10.06     0.1324E-1  -.9799     0.7205E-2  -1.032   
  10.08     0.1378E-1  -.9783     0.6534E-2  -1.032   
  10.09     0.1446E-1  -.9765     0.5970E-2  -1.031   
  10.11     0.1530E-1  -.9748     0.5495E-2  -1.031   
  10.12     0.1632E-1  -.9729     0.5092E-2  -1.030   
  10.14     0.1756E-1  -.9710     0.4750E-2  -1.029   
  10.15     0.1904E-1  -.9691     0.4458E-2  -1.029   
  10.17     0.2084E-1  -.9671     0.4208E-2  -1.028   
  10.18     0.2299E-1  -.9651     0.3993E-2  -1.028   
  10.20     0.2558E-1  -.9630     0.3808E-2  -1.027   
  10.21     0.2871E-1  -.9610     0.3649E-2  -1.027   
  10.23     0.3246E-1  -.9592     0.3511E-2  -1.026   
  10.24     0.3697E-1  -.9576     0.3393E-2  -1.026   
  10.26     0.4234E-1  -.9565     0.3291E-2  -1.025   
  10.27     0.4865E-1  -.9562     0.3205E-2  -1.025   
  10.29     0.5587E-1  -.9572     0.3132E-2  -1.024   
  10.30     0.6380E-1  -.9599     0.3072E-2  -1.024   
  10.32     0.7191E-1  -.9649     0.3023E-2  -1.024   
  10.33     0.7925E-1  -.9726     0.2985E-2  -1.023   
  10.35     0.8459E-1  -.9827     0.2957E-2  -1.023   
  10.36     0.8679E-1  -.9945     0.2940E-2  -1.022   
  10.38     0.8529E-1  -1.006     0.2932E-2  -1.022   
  10.39     0.8047E-1  -1.017     0.2935E-2  -1.022   
  10.41     0.7339E-1  -1.025     0.2948E-2  -1.021   
  10.42     0.6529E-1  -1.031     0.2972E-2  -1.021   
  10.44     0.5719E-1  -1.034     0.3007E-2  -1.020   
  10.45     0.4970E-1  -1.036     0.3055E-2  -1.020   
  10.47     0.4309E-1  -1.036     0.3115E-2  -1.019   
  10.48     0.3743E-1  -1.035     0.3191E-2  -1.019   
  10.50     0.3263E-1  -1.034     0.3283E-2  -1.019   
  10.51     0.2861E-1  -1.032     0.3394E-2  -1.018   
  10.53     0.2524E-1  -1.030     0.3527E-2  -1.018   
  10.54     0.2242E-1  -1.028     0.3684E-2  -1.017   
  10.56     0.2004E-1  -1.026     0.3870E-2  -1.017   
  10.57     0.1804E-1  -1.024     0.4089E-2  -1.016   
  10.59     0.1634E-1  -1.023     0.4349E-2  -1.016   
  10.60     0.1489E-1  -1.021     0.4657E-2  -1.015   
  10.62     0.1364E-1  -1.019     0.5022E-2  -1.015   
  10.63     0.1258E-1  -1.018     0.5456E-2  -1.014   
  10.65     0.1165E-1  -1.016     0.5974E-2  -1.014   
  10.66     0.1085E-1  -1.015     0.6593E-2  -1.013   
  10.68     0.1016E-1  -1.014     0.7336E-2  -1.012   
  10.69     0.9555E-2  -1.012     0.8227E-2  -1.012   
  10.71     0.9028E-2  -1.011     0.9294E-2  -1.011   
  10.72     0.8567E-2  -1.010     0.1056E-1  -1.011   
  10.74     0.8165E-2  -1.009     0.1205E-1  -1.011   
  10.75     0.7815E-2  -1.008     0.1375E-1  -1.011   
  10.77     0.7510E-2  -1.007     0.1561E-1  -1.012   
  10.78     0.7247E-2  -1.006     0.1750E-1  -1.013   
  10.80     0.7021E-2  -1.005     0.1921E-1  -1.015   
  10.81     0.6828E-2  -1.004     0.2043E-1  -1.017   
  10.83     0.6667E-2  -1.003     0.2091E-1  -1.020   
  10.84     0.6535E-2  -1.002     0.2052E-1  -1.022   
  10.86     0.6431E-2  -1.001     0.1936E-1  -1.025   
  10.87     0.6353E-2  -1.000     0.1768E-1  -1.026   
  10.89     0.6301E-2  -.9994     0.1577E-1  -1.028   
  10.90     0.6274E-2  -.9986     0.1388E-1  -1.028   
  10.92     0.6273E-2  -.9977     0.1213E-1  -1.029   
  10.93     0.6297E-2  -.9968     0.1059E-1  -1.028   
  10.95     0.6348E-2  -.9959     0.9271E-2  -1.028   
  10.96     0.6427E-2  -.9951     0.8155E-2  -1.028   
  10.98     0.6535E-2  -.9942     0.7219E-2  -1.027   
  10.99     0.6676E-2  -.9933     0.6434E-2  -1.027   
  11.01     0.6850E-2  -.9924     0.5775E-2  -1.026   
  11.02     0.7064E-2  -.9914     0.5221E-2  -1.026   
  11.04     0.7320E-2  -.9905     0.4753E-2  -1.025   
  11.05     0.7625E-2  -.9895     0.4355E-2  -1.025   
  11.07     0.7985E-2  -.9885     0.4016E-2  -1.024   
  11.08     0.8409E-2  -.9875     0.3726E-2  -1.024   
  11.10     0.8908E-2  -.9864     0.3476E-2  -1.023   
  11.11     0.9493E-2  -.9853     0.3261E-2  -1.023   
  11.13     0.1018E-1  -.9841     0.3074E-2  -1.022   
  11.14     0.1100E-1  -.9829     0.2913E-2  -1.022   
  11.16     0.1196E-1  -.9817     0.2774E-2  -1.022   
  11.17     0.1310E-1  -.9804     0.2653E-2  -1.021   
  11.19     0.1445E-1  -.9791     0.2549E-2  -1.021   
  11.20     0.1607E-1  -.9778     0.2459E-2  -1.021   
  11.22     0.1800E-1  -.9765     0.2383E-2  -1.020   
  11.23     0.2032E-1  -.9753     0.2320E-2  -1.020   
  11.25     0.2308E-1  -.9743     0.2268E-2  -1.020   
  11.26     0.2636E-1  -.9736     0.2227E-2  -1.019   
  11.28     0.3019E-1  -.9734     0.2196E-2  -1.019   
  11.29     0.3455E-1  -.9740     0.2176E-2  -1.019   
  11.31     0.3928E-1  -.9756     0.2167E-2  -1.018   
  11.32     0.4402E-1  -.9787     0.2168E-2  -1.018   
  11.34     0.4821E-1  -.9833     0.2182E-2  -1.018   
  11.35     0.5110E-1  -.9893     0.2207E-2  -1.018   
  11.37     0.5206E-1  -.9961     0.2247E-2  -1.017   
  11.38     0.5085E-1  -1.003     0.2303E-2  -1.017   
  11.40     0.4778E-1  -1.009     0.2377E-2  -1.017   
  11.41     0.4352E-1  -1.013     0.2471E-2  -1.016   
  11.43     0.3879E-1  -1.016     0.2590E-2  -1.016   
  11.44     0.3414E-1  -1.017     0.2738E-2  -1.016   
  11.46     0.2989E-1  -1.018     0.2921E-2  -1.016   
  11.47     0.2617E-1  -1.018     0.3146E-2  -1.015   
  11.49     0.2301E-1  -1.017     0.3420E-2  -1.015   
  11.50     0.2034E-1  -1.016     0.3755E-2  -1.015   
  11.52     0.1813E-1  -1.014     0.4158E-2  -1.014   
  11.53     0.1628E-1  -1.013     0.4637E-2  -1.014   
  11.55     0.1475E-1  -1.012     0.5195E-2  -1.014   
  11.56     0.1348E-1  -1.010     0.5820E-2  -1.014   
  11.58     0.1242E-1  -1.009     0.6478E-2  -1.015   
  11.59     0.1153E-1  -1.008     0.7104E-2  -1.015   
  11.61     0.1080E-1  -1.006     0.7603E-2  -1.016   
  11.62     0.1019E-1  -1.005     0.7871E-2  -1.016   
  11.64     0.9691E-2  -1.004     0.7842E-2  -1.017   
  11.65     0.9282E-2  -1.003     0.7519E-2  -1.018   
  11.67     0.8952E-2  -1.002     0.6975E-2  -1.019   
  11.68     0.8693E-2  -1.000     0.6313E-2  -1.019   
  11.70     0.8498E-2  -.9993     0.5626E-2  -1.020   
  11.71     0.8360E-2  -.9982     0.4976E-2  -1.020   
  11.73     0.8277E-2  -.9971     0.4395E-2  -1.020   
  11.74     0.8244E-2  -.9960     0.3891E-2  -1.019   
  11.76     0.8262E-2  -.9949     0.3463E-2  -1.019   
  11.77     0.8329E-2  -.9938     0.3102E-2  -1.019   
  11.79     0.8447E-2  -.9926     0.2799E-2  -1.019   
  11.80     0.8616E-2  -.9915     0.2544E-2  -1.018   
  11.82     0.8840E-2  -.9904     0.2329E-2  -1.018   
  11.83     0.9122E-2  -.9892     0.2147E-2  -1.018   
  11.85     0.9469E-2  -.9880     0.1992E-2  -1.018   
  11.86     0.9887E-2  -.9867     0.1859E-2  -1.018   
  11.88     0.1039E-1  -.9854     0.1746E-2  -1.017   
  11.89     0.1098E-1  -.9841     0.1647E-2  -1.017   
  11.91     0.1167E-1  -.9827     0.1562E-2  -1.017   
  11.92     0.1250E-1  -.9813     0.1488E-2  -1.017   
  11.94     0.1346E-1  -.9798     0.1424E-2  -1.016   
  11.95     0.1460E-1  -.9782     0.1368E-2  -1.016   
  11.97     0.1595E-1  -.9766     0.1319E-2  -1.016   
  11.98     0.1755E-1  -.9750     0.1276E-2  -1.016   
  12.00     0.1946E-1  -.9733     0.1239E-2  -1.016   
  12.01     0.2173E-1  -.9715     0.1207E-2  -1.016   
  12.03     0.2444E-1  -.9699     0.1180E-2  -1.015   
  12.04     0.2769E-1  -.9683     0.1157E-2  -1.015   
  12.06     0.3156E-1  -.9670     0.1137E-2  -1.015   
  12.07     0.3615E-1  -.9662     0.1122E-2  -1.015   
  12.09     0.4150E-1  -.9660     0.1111E-2  -1.015   
  12.10     0.4757E-1  -.9670     0.1103E-2  -1.015   
  12.12     0.5414E-1  -.9694     0.1099E-2  -1.014   
  12.13     0.6069E-1  -.9738     0.1100E-2  -1.014   
  12.15     0.6642E-1  -.9803     0.1104E-2  -1.014   
  12.16     0.7029E-1  -.9887     0.1113E-2  -1.014   
  12.18     0.7147E-1  -.9982     0.1127E-2  -1.014   
  12.19     0.6967E-1  -1.008     0.1147E-2  -1.014   
  12.21     0.6535E-1  -1.016     0.1173E-2  -1.014   
  12.22     0.5947E-1  -1.022     0.1207E-2  -1.013   
  12.24     0.5299E-1  -1.025     0.1250E-2  -1.013   
  12.25     0.4667E-1  -1.027     0.1303E-2  -1.013   
  12.27     0.4092E-1  -1.028     0.1368E-2  -1.013   
  12.28     0.3591E-1  -1.027     0.1449E-2  -1.013   
  12.30     0.3167E-1  -1.026     0.1547E-2  -1.013   
  12.31     0.2813E-1  -1.025     0.1667E-2  -1.013   
  12.33     0.2521E-1  -1.023     0.1812E-2  -1.012   
  12.34     0.2280E-1  -1.021     0.1988E-2  -1.012   
  12.36     0.2084E-1  -1.019     0.2196E-2  -1.012   
  12.37     0.1924E-1  -1.017     0.2440E-2  -1.012   
  12.39     0.1795E-1  -1.015     0.2715E-2  -1.012   
  12.40     0.1693E-1  -1.013     0.3006E-2  -1.012   
  12.42     0.1613E-1  -1.011     0.3289E-2  -1.012   
  12.43     0.1553E-1  -1.010     0.3520E-2  -1.013   
  12.45     0.1511E-1  -1.008     0.3656E-2  -1.013   
  12.46     0.1485E-1  -1.006     0.3661E-2  -1.013   
  12.48     0.1474E-1  -1.004     0.3535E-2  -1.014   
  12.49     0.1479E-1  -1.002     0.3304E-2  -1.014   
  12.51     0.1499E-1  -1.000     0.3015E-2  -1.014   
  12.52     0.1534E-1  -.9986     0.2710E-2  -1.014   
  12.54     0.1585E-1  -.9968     0.2418E-2  -1.014   
  12.55     0.1655E-1  -.9949     0.2156E-2  -1.014   
  12.57     0.1745E-1  -.9929     0.1928E-2  -1.014   
  12.58     0.1859E-1  -.9909     0.1734E-2  -1.014   
  12.60     0.1999E-1  -.9889     0.1570E-2  -1.014   
  12.61     0.2171E-1  -.9868     0.1433E-2  -1.014   
  12.63     0.2381E-1  -.9847     0.1317E-2  -1.014   
  12.64     0.2636E-1  -.9827     0.1219E-2  -1.013   
  12.66     0.2945E-1  -.9807     0.1137E-2  -1.013   
  12.67     0.3319E-1  -.9788     0.1067E-2  -1.013   
  12.69     0.3770E-1  -.9773     0.1007E-2  -1.013   
  12.70     0.4307E-1  -.9763     0.9553E-3  -1.013   
  12.72     0.4936E-1  -.9762     0.9109E-3  -1.013   
  12.73     0.5653E-1  -.9774     0.8725E-3  -1.013   
  12.75     0.6429E-1  -.9805     0.8391E-3  -1.013   
  12.76     0.7205E-1  -.9859     0.8100E-3  -1.012   
  12.78     0.7882E-1  -.9939     0.7846E-3  -1.012   
  12.79     0.8337E-1  -1.004     0.7625E-3  -1.012   
  12.81     0.8467E-1  -1.016     0.7431E-3  -1.012   
  12.82     0.8239E-1  -1.027     0.7262E-3  -1.012   
  12.84     0.7706E-1  -1.037     0.7115E-3  -1.012   
  12.85     0.6982E-1  -1.045     0.6988E-3  -1.012   
  12.87     0.6185E-1  -1.050     0.6879E-3  -1.012   
  12.88     0.5405E-1  -1.052     0.6787E-3  -1.012   
  12.90     0.4692E-1  -1.053     0.6710E-3  -1.012   
  12.91     0.4068E-1  -1.053     0.6648E-3  -1.011   
  12.93     0.3535E-1  -1.052     0.6600E-3  -1.011   
  12.94     0.3085E-1  -1.051     0.6566E-3  -1.011   
  12.96     0.2707E-1  -1.049     0.6546E-3  -1.011   
  12.97     0.2391E-1  -1.047     0.6539E-3  -1.011   
  12.99     0.2125E-1  -1.045     0.6547E-3  -1.011   
  13.00     0.1900E-1  -1.044     0.6569E-3  -1.011   
  13.02     0.1711E-1  -1.042     0.6607E-3  -1.011   
  13.03     0.1549E-1  -1.040     0.6661E-3  -1.011   
  13.05     0.1412E-1  -1.039     0.6732E-3  -1.011   
  13.06     0.1293E-1  -1.037     0.6824E-3  -1.011   
  13.08     0.1191E-1  -1.036     0.6936E-3  -1.010   
  13.09     0.1103E-1  -1.034     0.7073E-3  -1.010   
  13.11     0.1027E-1  -1.033     0.7236E-3  -1.010   
  13.12     0.9605E-2  -1.032     0.7427E-3  -1.010   
  13.14     0.9026E-2  -1.031     0.7647E-3  -1.010   
  13.15     0.8519E-2  -1.030     0.7898E-3  -1.010   
  13.17     0.8073E-2  -1.029     0.8176E-3  -1.010   
  13.18     0.7676E-2  -1.028     0.8480E-3  -1.010   
  13.20     0.7320E-2  -1.027     0.8809E-3  -1.010   
  13.21     0.6998E-2  -1.026     0.9166E-3  -1.010   
  13.23     0.6705E-2  -1.025     0.9564E-3  -1.009   
  13.24     0.6440E-2  -1.024     0.1002E-2  -1.009   
  13.26     0.6203E-2  -1.023     0.1055E-2  -1.009   
  13.27     0.5994E-2  -1.023     0.1119E-2  -1.009   
  13.29     0.5811E-2  -1.022     0.1196E-2  -1.009   
  13.30     0.5654E-2  -1.021     0.1288E-2  -1.009   
  13.32     0.5522E-2  -1.020     0.1398E-2  -1.009   
  13.33     0.5413E-2  -1.020     0.1531E-2  -1.009   
  13.35     0.5327E-2  -1.019     0.1692E-2  -1.008   
  13.36     0.5262E-2  -1.018     0.1884E-2  -1.008   
  13.38     0.5219E-2  -1.017     0.2115E-2  -1.008   
  13.39     0.5196E-2  -1.017     0.2390E-2  -1.008   
  13.41     0.5196E-2  -1.016     0.2711E-2  -1.008   
  13.42     0.5217E-2  -1.015     0.3077E-2  -1.008   
  13.44     0.5262E-2  -1.015     0.3475E-2  -1.008   
  13.45     0.5331E-2  -1.014     0.3876E-2  -1.008   
  13.47     0.5427E-2  -1.013     0.4231E-2  -1.009   
  13.48     0.5552E-2  -1.013     0.4478E-2  -1.009   
  13.50     0.5709E-2  -1.012     0.4562E-2  -1.010   
  13.51     0.5902E-2  -1.011     0.4461E-2  -1.010   
  13.53     0.6137E-2  -1.010     0.4201E-2  -1.011   
  13.54     0.6419E-2  -1.010     0.3838E-2  -1.011   
  13.56     0.6756E-2  -1.009     0.3432E-2  -1.011   
  13.57     0.7157E-2  -1.008     0.3033E-2  -1.012   
  13.59     0.7634E-2  -1.007     0.2667E-2  -1.012   
  13.60     0.8201E-2  -1.006     0.2346E-2  -1.012   
  13.62     0.8877E-2  -1.005     0.2071E-2  -1.011   
  13.63     0.9683E-2  -1.005     0.1839E-2  -1.011   
  13.65     0.1065E-1  -1.004     0.1645E-2  -1.011   
  13.66     0.1180E-1  -1.003     0.1483E-2  -1.011   
  13.68     0.1319E-1  -1.002     0.1347E-2  -1.011   
  13.69     0.1486E-1  -1.001     0.1233E-2  -1.011   
  13.71     0.1685E-1  -1.000     0.1136E-2  -1.011   
  13.72     0.1922E-1  -.9998     0.1055E-2  -1.011   
  13.74     0.2199E-1  -.9997     0.9856E-3  -1.011   
  13.75     0.2515E-1  -1.000     0.9265E-3  -1.010   
  13.77     0.2857E-1  -1.001     0.8760E-3  -1.010   
  13.78     0.3201E-1  -1.004     0.8328E-3  -1.010   
  13.80     0.3503E-1  -1.007     0.7957E-3  -1.010   
  13.81     0.3710E-1  -1.012     0.7639E-3  -1.010   
  13.83     0.3777E-1  -1.017     0.7368E-3  -1.010   
  13.84     0.3685E-1  -1.022     0.7136E-3  -1.010   
  13.86     0.3459E-1  -1.026     0.6940E-3  -1.010   
  13.87     0.3146E-1  -1.029     0.6777E-3  -1.010   
  13.89     0.2800E-1  -1.031     0.6643E-3  -1.010   
  13.90     0.2460E-1  -1.033     0.6536E-3  -1.009   
  13.92     0.2150E-1  -1.033     0.6454E-3  -1.009   
  13.93     0.1879E-1  -1.033     0.6397E-3  -1.009   
  13.95     0.1649E-1  -1.032     0.6364E-3  -1.009   
  13.96     0.1456E-1  -1.032     0.6354E-3  -1.009   
  13.98     0.1297E-1  -1.031     0.6367E-3  -1.009   
  13.99     0.1165E-1  -1.030     0.6403E-3  -1.009   
  14.01     0.1057E-1  -1.030     0.6459E-3  -1.009   
  14.02     0.9667E-2  -1.029     0.6535E-3  -1.009   
  14.04     0.8909E-2  -1.028     0.6626E-3  -1.009   
  14.05     0.8252E-2  -1.027     0.6730E-3  -1.009   
  14.07     0.7661E-2  -1.027     0.6845E-3  -1.008   
  14.08     0.7112E-2  -1.026     0.6975E-3  -1.008   
  14.10     0.6596E-2  -1.026     0.7124E-3  -1.008   
  14.11     0.6114E-2  -1.025     0.7301E-3  -1.008   
  14.13     0.5672E-2  -1.025     0.7513E-3  -1.008   
  14.14     0.5273E-2  -1.024     0.7769E-3  -1.008   
  14.16     0.4917E-2  -1.024     0.8073E-3  -1.008   
  14.17     0.4603E-2  -1.023     0.8436E-3  -1.008   
  14.19     0.4326E-2  -1.023     0.8864E-3  -1.008   
  14.20     0.4082E-2  -1.023     0.9370E-3  -1.008   
  14.22     0.3867E-2  -1.022     0.9965E-3  -1.007   
  14.23     0.3677E-2  -1.022     0.1067E-2  -1.007   
  14.25     0.3509E-2  -1.021     0.1149E-2  -1.007   
  14.26     0.3360E-2  -1.021     0.1247E-2  -1.007   
  14.28     0.3226E-2  -1.021     0.1363E-2  -1.007   
  14.29     0.3107E-2  -1.020     0.1500E-2  -1.007   
  14.31     0.3000E-2  -1.020     0.1665E-2  -1.007   
  14.32     0.2905E-2  -1.020     0.1862E-2  -1.007   
  14.34     0.2819E-2  -1.019     0.2097E-2  -1.006   
  14.35     0.2741E-2  -1.019     0.2379E-2  -1.006   
  14.37     0.2672E-2  -1.019     0.2714E-2  -1.006   
  14.38     0.2610E-2  -1.019     0.3108E-2  -1.006   
  14.40     0.2554E-2  -1.018     0.3558E-2  -1.006   
  14.41     0.2504E-2  -1.018     0.4053E-2  -1.006   
  14.43     0.2459E-2  -1.018     0.4559E-2  -1.007   
  14.44     0.2419E-2  -1.018     0.5021E-2  -1.007   
  14.46     0.2384E-2  -1.017     0.5362E-2  -1.008   
  14.47     0.2353E-2  -1.017     0.5508E-2  -1.009   
  14.49     0.2326E-2  -1.017     0.5424E-2  -1.009   
  14.50     0.2303E-2  -1.017     0.5129E-2  -1.010   
  14.52     0.2284E-2  -1.017     0.4690E-2  -1.010   
  14.53     0.2267E-2  -1.016     0.4184E-2  -1.011   
  14.55     0.2255E-2  -1.016     0.3677E-2  -1.011   
  14.56     0.2245E-2  -1.016     0.3206E-2  -1.011   
  14.58     0.2239E-2  -1.016     0.2790E-2  -1.011   
  14.59     0.2235E-2  -1.016     0.2433E-2  -1.011   
  14.61     0.2235E-2  -1.016     0.2131E-2  -1.011   
  14.62     0.2237E-2  -1.015     0.1877E-2  -1.011   
  14.64     0.2243E-2  -1.015     0.1664E-2  -1.011   
  14.65     0.2251E-2  -1.015     0.1485E-2  -1.011   
  14.67     0.2263E-2  -1.015     0.1334E-2  -1.010   
  14.68     0.2277E-2  -1.015     0.1206E-2  -1.010   
  14.70     0.2294E-2  -1.015     0.1097E-2  -1.010   
  14.71     0.2315E-2  -1.015     0.1003E-2  -1.010   
  14.73     0.2338E-2  -1.015     0.9227E-3  -1.010   
  14.74     0.2365E-2  -1.015     0.8530E-3  -1.010   
  14.76     0.2396E-2  -1.014     0.7923E-3  -1.010   
  14.77     0.2430E-2  -1.014     0.7392E-3  -1.010   
  14.79     0.2468E-2  -1.014     0.6924E-3  -1.010   
  14.80     0.2510E-2  -1.014     0.6510E-3  -1.010   
  14.82     0.2556E-2  -1.014     0.6143E-3  -1.009   
  14.83     0.2607E-2  -1.014     0.5815E-3  -1.009   
  14.85     0.2662E-2  -1.014     0.5521E-3  -1.009   
  14.86     0.2723E-2  -1.014     0.5257E-3  -1.009   
  14.88     0.2789E-2  -1.014     0.5018E-3  -1.009   
  14.89     0.2861E-2  -1.014     0.4802E-3  -1.009   
  14.91     0.2939E-2  -1.014     0.4606E-3  -1.009   
  14.92     0.3025E-2  -1.014     0.4427E-3  -1.009   
  14.94     0.3118E-2  -1.015     0.4263E-3  -1.009   
  14.95     0.3220E-2  -1.015     0.4112E-3  -1.009   
  14.97     0.3331E-2  -1.015     0.3972E-3  -1.009   
  14.98     0.3420E-2  -1.017     0.3804E-3  -1.009   
  15.00     0.4418E-4  -1.017     0.5294E-5  -1.009   
# 
# YAMBO@aiken x 001 CPUs * 12/30/2011  11:58 [start]
#                          12/30/2011  11:58 [end]
# 
# Cpu Timing [Min/Max/Average]: 01s/01s/01s
#
# .-Input file : Inputs/03_RPA_LF_xl
# | optics                       # [R OPT] Optics
# | bse                          # [R BSK] Bethe Salpeter Equation.
# | bss                          # [R BSS] Bethe Salpeter Equation solver
# | FFTGvecs=  9987        RL    # [FFT] Plane-waves
# | NonPDirs= "XYZ"              # [X/BSS] Non periodic chartesian directions (X,Y,Z,XY...)
# | BSresKmod= "x"               # [BSK] Resonant Kernel mode. (`x`;`c`;`d`)
# | BScplKmod= "none"            # [BSK] Coupling Kernel mode. (`x`;`c`;`d`;`u`)
# | % BSEBands
# |    1 | 200 |                 # [BSK] Bands range
# | %
# | BSENGBlk= 1            RL    # [BSK] Screened interaction block size
# | BSENGexx=  9045        RL    # [BSK] Exchange components
# | BSSmod= "d"                  # [BSS] Solvers `h/d/i/t`
# | % BEnRange
# |   0.00000 | 15.00000 | eV    # [BSS] Energy range
# | %
# | % BDmRange
# |   0.10000 |  0.10000 | eV    # [BSS] Damping range
# | %
# | BEnSteps= 1000               # [BSS] Energy steps
# | % BLongDir
# | 0.1000E-4 | 0.000    | 0.000    |        # [BSS] [cc] Electric Field
# | %
