#                                                           
# Y88b    /   e           e    e      888~~\    ,88~-_      
#  Y88b  /   d8b         d8b  d8b     888   |  d888   \     
#   Y88b/   /Y88b       d888bdY88b    888 _/  88888    |    
#    Y8Y   /  Y88b     / Y88Y Y888b   888  \  88888    |    
#     Y   /____Y88b   /   YY   Y888b  888   |  Y888   /     
#    /   /      Y88b /          Y888b 888__/    `88_-~      
#                                                           
#             GPL Version 3.1.2 Revision 297                
#               http://www.yambo-code.org                   
#
# Polarization (-<<X>>) [volume] @ IQ 1 :0.1000E-4  0.000     0.000
#
# - The gauge is transverse + [r,Vnl] -
#
# BSK|Identifier              :7358
#    |Dimension               :199
#    |Bands                   :1 - 200
#    |Exchange           [res]: yes
#    |Correlation        [res]: no
#    |Kernel`s coupling       : no
#    |Exchange           [cpl]: no
#    |Correlation        [cpl]: no
#    |ALDA kernel in R-space  : no
#    |RL vectors    [exchange]:9045
#    |E/h energy range    [ev]:-1.000000 - -1.000000
#    |Coupling range     [o/o]: 100.0000 -  100.0000
#
#  E/ev[1]    alpha/Im   alpha/Re   alphao/Im  alphao/Re
#
   0.00000    0.05168    6.46882    0.12822   10.44835
   0.01502    0.05181    6.47667    0.12870   10.46762
   0.03003    0.05194    6.48438    0.12918   10.48689
   0.04505    0.05207    6.49224    0.12966   10.50646
   0.06006    0.05221    6.50009    0.13014   10.52587
   0.07508    0.05234    6.50795    0.13063   10.54544
   0.09009    0.05247    6.51580    0.13112   10.56515
   0.10511    0.05260    6.52366    0.13161   10.58487
   0.12012    0.05274    6.53152    0.13211   10.60458
   0.13514    0.05287    6.53952    0.13260   10.62444
   0.15015    0.05301    6.54738    0.13310   10.64445
   0.16517    0.05314    6.55538    0.13361   10.66446
   0.18018    0.05328    6.56338    0.13411   10.68447
   0.19520    0.05342    6.57139    0.13462   10.70463
   0.21021    0.05356    6.57939    0.13514   10.72494
   0.22523    0.05369    6.58740    0.13565   10.74524
   0.24024    0.05383    6.59555    0.13617   10.76570
   0.25526    0.05397    6.60370    0.13669   10.78615
   0.27027    0.05411    6.61171    0.13722   10.80676
   0.28529    0.05425    6.61986    0.13774   10.82736
   0.30030    0.05439    6.62801    0.13827   10.84811
   0.31532    0.05453    6.63616    0.13881   10.86886
   0.33033    0.05468    6.64446    0.13934   10.88976
   0.34535    0.05482    6.65262    0.13988   10.91066
   0.36036    0.05496    6.66092    0.14043   10.93171
   0.37538    0.05510    6.66907    0.14097   10.95291
   0.39039    0.05525    6.67737    0.14152   10.97410
   0.40541    0.05539    6.68567    0.14207   10.99530
   0.42042    0.05554    6.69397    0.14263   11.01664
   0.43544    0.05569    6.70242    0.14319   11.03814
   0.45045    0.05583    6.71072    0.14375   11.05963
   0.46547    0.05598    6.71917    0.14432   11.08127
   0.48048    0.05613    6.72762    0.14489   11.10306
   0.49550    0.05628    6.73607    0.14546   11.12485
   0.51051    0.05643    6.74451    0.14603   11.14664
   0.52553    0.05657    6.75296    0.14661   11.16857
   0.54054    0.05673    6.76141    0.14720   11.19066
   0.55556    0.05688    6.77001    0.14778   11.21275
   0.57057    0.05703    6.77861    0.14837   11.23498
   0.58559    0.05718    6.78706    0.14897   11.25736
   0.60060    0.05733    6.79565    0.14956   11.27974
   0.61562    0.05749    6.80425    0.15016   11.30227
   0.63063    0.05764    6.81299    0.15077   11.32480
   0.64565    0.05780    6.82159    0.15137   11.34748
   0.66066    0.05795    6.83034    0.15199   11.37031
   0.67568    0.05811    6.83908    0.15260   11.39314
   0.69069    0.05826    6.84783    0.15322   11.41611
   0.70571    0.05842    6.85657    0.15384   11.43908
   0.72072    0.05858    6.86532    0.15447   11.46221
   0.73574    0.05874    6.87406    0.15510   11.48548
   0.75075    0.05890    6.88296    0.15573   11.50890
   0.76577    0.05906    6.89185    0.15637   11.53232
   0.78078    0.05922    6.90074    0.15701   11.55574
   0.79580    0.05938    6.90964    0.15766   11.57945
   0.81081    0.05954    6.91853    0.15831   11.60317
   0.82583    0.05971    6.92742    0.15896   11.62688
   0.84084    0.05987    6.93647    0.15962   11.65075
   0.85586    0.06003    6.94536    0.16029   11.67476
   0.87087    0.06020    6.95440    0.16095   11.69892
   0.88589    0.06036    6.96344    0.16162   11.72308
   0.90090    0.06053    6.97263    0.16230   11.74739
   0.91592    0.06070    6.98167    0.16298   11.77185
   0.93093    0.06087    6.99086    0.16366   11.79631
   0.94595    0.06104    6.99991    0.16435   11.82106
   0.96096    0.06120    7.00910    0.16504   11.84566
   0.97598    0.06137    7.01829    0.16574   11.87057
   0.99099    0.06155    7.02762    0.16644   11.89547
   1.00601    0.06172    7.03681    0.16714   11.92052
   1.02102    0.06189    7.04615    0.16785   11.94557
   1.03604    0.06206    7.05534    0.16857   11.97091
   1.05105    0.06224    7.06468    0.16929   11.99626
   1.06607    0.06241    7.07402    0.17001   12.02176
   1.08108    0.06259    7.08350    0.17074   12.04725
   1.09610    0.06276    7.09284    0.17147   12.07289
   1.11111    0.06294    7.10233    0.17221   12.09868
   1.12613    0.06312    7.11182    0.17295   12.12462
   1.14114    0.06330    7.12130    0.17370   12.15071
   1.15616    0.06348    7.13079    0.17445   12.17680
   1.17117    0.06366    7.14028    0.17521   12.20303
   1.18619    0.06384    7.14991    0.17597   12.22942
   1.20120    0.06402    7.15954    0.17674   12.25580
   1.21622    0.06420    7.16903    0.17751   12.28248
   1.23123    0.06438    7.17881    0.17829   12.30916
   1.24625    0.06457    7.18845    0.17907   12.33599
   1.26126    0.06475    7.19808    0.17986   12.36282
   1.27628    0.06494    7.20787    0.18065   12.38995
   1.29129    0.06513    7.21765    0.18145   12.41707
   1.30631    0.06531    7.22743    0.18225   12.44434
   1.32132    0.06550    7.23721    0.18306   12.47176
   1.33634    0.06569    7.24714    0.18388   12.49933
   1.35135    0.06588    7.25693    0.18470   12.52705
   1.36637    0.06607    7.26686    0.18552   12.55477
   1.38138    0.06626    7.27679    0.18635   12.58264
   1.39640    0.06646    7.28672    0.18719   12.61065
   1.41141    0.06665    7.29680    0.18803   12.63881
   1.42643    0.06685    7.30673    0.18888   12.66712
   1.44144    0.06704    7.31681    0.18973   12.69558
   1.45646    0.06724    7.32689    0.19059   12.72404
   1.47147    0.06743    7.33697    0.19146   12.75280
   1.48649    0.06763    7.34720    0.19233   12.78155
   1.50150    0.06783    7.35728    0.19320   12.81046
   1.51652    0.06803    7.36750    0.19409   12.83951
   1.53153    0.06823    7.37773    0.19498   12.86871
   1.54655    0.06843    7.38796    0.19587   12.89806
   1.56156    0.06864    7.39833    0.19677   12.92756
   1.57658    0.06884    7.40856    0.19768   12.95720
   1.59159    0.06905    7.41894    0.19860   12.98685
   1.60661    0.06925    7.42931    0.19952   13.01679
   1.62162    0.06946    7.43969    0.20044   13.04673
   1.63664    0.06967    7.45021    0.20138   13.07697
   1.65165    0.06987    7.46074    0.20232   13.10720
   1.66667    0.07008    7.47111    0.20326   13.13774
   1.68168    0.07029    7.48178    0.20422   13.16827
   1.69670    0.07051    7.49231    0.20518   13.19895
   1.71171    0.07072    7.50283    0.20614   13.22979
   1.72673    0.07093    7.51350    0.20712   13.26091
   1.74174    0.07115    7.52418    0.20810   13.29204
   1.75676    0.07136    7.53485    0.20909   13.32332
   1.77177    0.07158    7.54567    0.21008   13.35474
   1.78679    0.07180    7.55634    0.21108   13.38631
   1.80180    0.07202    7.56716    0.21209   13.41818
   1.81682    0.07223    7.57798    0.21311   13.45005
   1.83183    0.07246    7.58880    0.21413   13.48206
   1.84685    0.07268    7.59977    0.21517   13.51423
   1.86186    0.07290    7.61074    0.21620   13.54669
   1.87688    0.07312    7.62156    0.21725   13.57915
   1.89189    0.07335    7.63268    0.21831   13.61191
   1.90691    0.07358    7.64365    0.21937   13.64467
   1.92192    0.07380    7.65476    0.22044   13.67772
   1.93694    0.07403    7.66588    0.22151   13.71092
   1.95195    0.07426    7.67700    0.22260   13.74412
   1.96697    0.07449    7.68811    0.22369   13.77762
   1.98198    0.07472    7.69938    0.22479   13.81127
   1.99700    0.07496    7.71049    0.22590   13.84521
   2.01201    0.07519    7.72176    0.22702   13.87916
   2.02703    0.07543    7.73317    0.22815   13.91325
   2.04204    0.07566    7.74444    0.22928   13.94764
   2.05706    0.07590    7.75585    0.23043   13.98217
   2.07207    0.07614    7.76726    0.23158   14.01671
   2.08709    0.07638    7.77868    0.23274   14.05154
   2.10210    0.07662    7.79024    0.23391   14.08667
   2.11712    0.07686    7.80165    0.23509   14.12180
   2.13213    0.07711    7.81321    0.23627   14.15723
   2.14715    0.07735    7.82478    0.23747   14.19280
   2.16216    0.07760    7.83649    0.23868   14.22852
   2.17718    0.07784    7.84820    0.23989   14.26439
   2.19219    0.07809    7.85991    0.24111   14.30041
   2.20721    0.07834    7.87161    0.24235   14.33673
   2.22222    0.07859    7.88332    0.24359   14.37319
   2.23724    0.07885    7.89518    0.24484   14.40980
   2.25225    0.07910    7.90704    0.24611   14.44671
   2.26727    0.07935    7.91890    0.24738   14.48377
   2.28228    0.07961    7.93090    0.24866   14.52097
   2.29730    0.07987    7.94276    0.24995   14.55832
   2.31231    0.08013    7.95477    0.25126   14.59597
   2.32733    0.08039    7.96692    0.25257   14.63377
   2.34234    0.08065    7.97893    0.25389   14.67171
   2.35736    0.08091    7.99108    0.25522   14.70996
   2.37237    0.08118    8.00324    0.25657   14.74835
   2.38739    0.08144    8.01554    0.25792   14.78689
   2.40240    0.08171    8.02770    0.25929   14.82572
   2.41742    0.08198    8.04000    0.26066   14.86470
   2.43243    0.08225    8.05230    0.26205   14.90398
   2.44745    0.08252    8.06475    0.26345   14.94341
   2.46246    0.08279    8.07705    0.26486   14.98299
   2.47748    0.08306    8.08951    0.26628   15.02286
   2.49249    0.08334    8.10210    0.26771   15.06288
   2.50751    0.08362    8.11456    0.26916   15.10320
   2.52252    0.08389    8.12715    0.27061   15.14366
   2.53754    0.08417    8.13975    0.27208   15.18442
   2.55255    0.08446    8.15235    0.27356   15.22533
   2.56757    0.08474    8.16510    0.27505   15.26654
   2.58258    0.08502    8.17785    0.27656   15.30789
   2.59760    0.08531    8.19059    0.27808   15.34955
   2.61261    0.08560    8.20349    0.27961   15.39135
   2.62763    0.08588    8.21638    0.28115   15.43344
   2.64264    0.08617    8.22928    0.28270   15.47568
   2.65766    0.08647    8.24218    0.28427   15.51822
   2.67267    0.08676    8.25522    0.28585   15.56106
   2.68769    0.08706    8.26826    0.28745   15.60405
   2.70270    0.08735    8.28131    0.28905   15.64733
   2.71772    0.08765    8.29450    0.29068   15.69076
   2.73273    0.08795    8.30769    0.29231   15.73448
   2.74775    0.08825    8.32088    0.29396   15.77851
   2.76276    0.08855    8.33422    0.29562   15.82283
   2.77778    0.08886    8.34742    0.29730   15.86729
   2.79279    0.08917    8.36090    0.29899   15.91191
   2.80781    0.08947    8.37424    0.30070   15.95697
   2.82282    0.08978    8.38773    0.30242   16.00218
   2.83784    0.09010    8.40122    0.30416   16.04768
   2.85285    0.09041    8.41471    0.30591   16.09348
   2.86787    0.09072    8.42835    0.30767   16.13958
   2.88288    0.09104    8.44198    0.30945   16.18583
   2.89790    0.09136    8.45562    0.31125   16.23237
   2.91291    0.09168    8.46940    0.31306   16.27921
   2.92793    0.09200    8.48319    0.31489   16.32635
   2.94294    0.09233    8.49697    0.31674   16.37363
   2.95796    0.09265    8.51091    0.31860   16.42136
   2.97297    0.09298    8.52484    0.32048   16.46923
   2.98799    0.09331    8.53877    0.32237   16.51756
   3.00300    0.09364    8.55286    0.32428   16.56602
   3.01802    0.09397    8.56694    0.32621   16.61479
   3.03303    0.09431    8.58102    0.32816   16.66385
   3.04805    0.09464    8.59525    0.33012   16.71336
   3.06306    0.09498    8.60948    0.33210   16.76302
   3.07808    0.09532    8.62371    0.33410   16.81297
   3.09309    0.09567    8.63808    0.33612   16.86321
   3.10811    0.09601    8.65246    0.33816   16.91376
   3.12312    0.09636    8.66699    0.34021   16.96475
   3.13814    0.09671    8.68137    0.34228   17.01589
   3.15315    0.09706    8.69589    0.34438   17.06747
   3.16817    0.09741    8.71057    0.34649   17.11920
   3.18318    0.09777    8.72524    0.34862   17.17137
   3.19820    0.09812    8.73991    0.35077   17.22384
   3.21321    0.09848    8.75459    0.35294   17.27661
   3.22823    0.09884    8.76941    0.35513   17.32968
   3.24324    0.09921    8.78438    0.35735   17.38319
   3.25826    0.09957    8.79920    0.35958   17.43699
   3.27327    0.09994    8.81417    0.36183   17.49109
   3.28829    0.10031    8.82929    0.36411   17.54549
   3.30330    0.10068    8.84426    0.36640   17.60034
   3.31832    0.10105    8.85953    0.36872   17.65548
   3.33333    0.10143    8.87465    0.37107   17.71091
   3.34835    0.10181    8.88992    0.37343   17.76679
   3.36336    0.10219    8.90518    0.37581   17.82297
   3.37838    0.10257    8.92060    0.37822   17.87959
   3.39339    0.10296    8.93602    0.38066   17.93651
   3.40841    0.10334    8.95158    0.38311   17.99372
   3.42342    0.10373    8.96699    0.38559   18.05138
   3.43844    0.10413    8.98271    0.38810   18.10949
   3.45345    0.10452    8.99827    0.39063   18.16789
   3.46847    0.10492    9.01398    0.39318   18.22659
   3.48348    0.10532    9.02984    0.39576   18.28573
   3.49850    0.10572    9.04570    0.39837   18.34531
   3.51351    0.10612    9.06156    0.40100   18.40534
   3.52853    0.10653    9.07757    0.40365   18.46567
   3.54354    0.10694    9.09358    0.40634   18.52644
   3.55856    0.10735    9.10959    0.40905   18.58751
   3.57357    0.10776    9.12574    0.41179   18.64917
   3.58859    0.10818    9.14190    0.41455   18.71113
   3.60360    0.10860    9.15820    0.41735   18.77353
   3.61862    0.10902    9.17451    0.42017   18.83638
   3.63363    0.10945    9.19096    0.42302   18.89952
   3.64865    0.10987    9.20741    0.42590   18.96326
   3.66366    0.11030    9.22387    0.42881   19.02729
   3.67868    0.11074    9.24047    0.43175   19.09192
   3.69369    0.11117    9.25722    0.43472   19.15684
   3.70871    0.11161    9.27382    0.43772   19.22221
   3.72372    0.11205    9.29072    0.44076   19.28817
   3.73874    0.11249    9.30747    0.44382   19.35443
   3.75375    0.11294    9.32451    0.44692   19.42127
   3.76877    0.11339    9.34141    0.45005   19.48857
   3.78378    0.11384    9.35846    0.45321   19.55631
   3.79880    0.11430    9.37565    0.45641   19.62449
   3.81381    0.11475    9.39284    0.45964   19.69327
   3.82883    0.11522    9.41004    0.46290   19.76234
   3.84384    0.11568    9.42738    0.46620   19.83200
   3.85886    0.11615    9.44472    0.46954   19.90226
   3.87387    0.11662    9.46221    0.47291   19.97297
   3.88889    0.11709    9.47985    0.47632   20.04412
   3.90390    0.11756    9.49734    0.47976   20.11571
   3.91892    0.11804    9.51513    0.48325   20.18804
   3.93393    0.11853    9.53277    0.48677   20.26067
   3.94895    0.11901    9.55070    0.49033   20.33404
   3.96396    0.11950    9.56849    0.49393   20.40786
   3.97898    0.11999    9.58657    0.49757   20.48212
   3.99399    0.12049    9.60451    0.50125   20.55697
   4.00901    0.12099    9.62274    0.50497   20.63242
   4.02402    0.12149    9.64082    0.50873   20.70846
   4.03904    0.12199    9.65920    0.51254   20.78509
   4.05405    0.12250    9.67758    0.51639   20.86217
   4.06907    0.12301    9.69596    0.52028   20.93998
   4.08408    0.12353    9.71449    0.52422   21.01825
   4.09910    0.12405    9.73302    0.52820   21.09725
   4.11411    0.12457    9.75170    0.53223   21.17670
   4.12913    0.12509    9.77037    0.53630   21.25674
   4.14414    0.12562    9.78920    0.54042   21.33752
   4.15916    0.12616    9.80817    0.54459   21.41890
   4.17417    0.12669    9.82714    0.54881   21.50087
   4.18919    0.12723    9.84612    0.55308   21.58343
   4.20420    0.12778    9.86524    0.55739   21.66673
   4.21922    0.12832    9.88451    0.56176   21.75062
   4.23423    0.12888    9.90377    0.56618   21.83526
   4.24925    0.12943    9.92319    0.57066   21.92049
   4.26426    0.12999    9.94261    0.57518   22.00631
   4.27928    0.13055    9.96217    0.57976   22.09287
   4.29429    0.13112    9.98189    0.58440   22.18018
   4.30931    0.13169   10.00160    0.58909   22.26822
   4.32432    0.13226   10.02132    0.59384   22.35686
   4.33934    0.13284   10.04133    0.59865   22.44624
   4.35435    0.13343   10.06119    0.60351   22.53636
   4.36937    0.13401   10.08135    0.60844   22.62722
   4.38438    0.13461   10.10151    0.61342   22.71883
   4.39940    0.13520   10.12166    0.61847   22.81117
   4.41441    0.13580   10.14212    0.62358   22.90426
   4.42943    0.13640   10.16243    0.62876   22.99808
   4.44444    0.13701   10.18303    0.63400   23.09280
   4.45946    0.13763   10.20363    0.63931   23.18826
   4.47447    0.13824   10.22424    0.64468   23.28445
   4.48949    0.13886   10.24514    0.65012   23.38154
   4.50450    0.13949   10.26604    0.65563   23.47937
   4.51952    0.14012   10.28693    0.66121   23.57808
   4.53453    0.14076   10.30798    0.66687   23.67769
   4.54955    0.14140   10.32918    0.67260   23.77804
   4.56456    0.14204   10.35052    0.67840   23.87928
   4.57958    0.14269   10.37187    0.68427   23.98140
   4.59459    0.14334   10.39336    0.69023   24.08442
   4.60961    0.14400   10.41485    0.69626   24.18833
   4.62462    0.14467   10.43649    0.70237   24.29312
   4.63964    0.14534   10.45828    0.70857   24.39895
   4.65465    0.14601   10.48022    0.71484   24.50567
   4.66967    0.14669   10.50216    0.72121   24.61329
   4.68469    0.14737   10.52424    0.72765   24.72179
   4.69970    0.14806   10.54633    0.73418   24.83132
   4.71472    0.14876   10.56856    0.74081   24.94190
   4.72973    0.14946   10.59094    0.74752   25.05336
   4.74474    0.15016   10.61347    0.75433   25.16602
   4.75976    0.15087   10.63600    0.76122   25.27955
   4.77478    0.15159   10.65883    0.76822   25.39413
   4.78979    0.15231   10.68151    0.77531   25.50975
   4.80481    0.15304   10.70448    0.78250   25.62655
   4.81982    0.15377   10.72746    0.78979   25.74439
   4.83484    0.15451   10.75058    0.79719   25.86326
   4.84985    0.15525   10.77385    0.80469   25.98333
   4.86487    0.15600   10.79727    0.81229   26.10443
   4.87988    0.15676   10.82069    0.82001   26.22671
   4.89490    0.15752   10.84426    0.82783   26.35018
   4.90991    0.15828   10.86798    0.83577   26.47484
   4.92492    0.15906   10.89184    0.84383   26.60068
   4.93994    0.15984   10.91570    0.85200   26.72771
   4.95496    0.16062   10.93972    0.86029   26.85607
   4.96997    0.16142   10.96388    0.86871   26.98547
   4.98499    0.16221   10.98818    0.87724   27.11635
   5.00000    0.16302   11.01264    0.88591   27.24842
   5.01502    0.16383   11.03710    0.89471   27.38182
   5.03003    0.16465   11.06170    0.90363   27.51656
   5.04505    0.16547   11.08661    0.91270   27.65263
   5.06006    0.16631   11.11151    0.92190   27.79004
   5.07508    0.16714   11.13641    0.93124   27.92877
   5.09009    0.16799   11.16161    0.94072   28.06899
   5.10511    0.16884   11.18681    0.95035   28.21070
   5.12012    0.16970   11.21230    0.96013   28.35373
   5.13514    0.17057   11.23779    0.97006   28.49825
   5.15015    0.17144   11.26344    0.98015   28.64440
   5.16517    0.17232   11.28923    0.99040   28.79189
   5.18018    0.17321   11.31517    1.00081   28.94100
   5.19520    0.17410   11.34126    1.01138   29.09174
   5.21021    0.17501   11.36749    1.02213   29.24412
   5.22523    0.17592   11.39373    1.03305   29.39798
   5.24024    0.17683   11.42026    1.04414   29.55346
   5.25526    0.17776   11.44679    1.05541   29.71073
   5.27027    0.17869   11.47362    1.06687   29.86963
   5.28529    0.17964   11.50045    1.07852   30.03030
   5.30030    0.18059   11.52743    1.09036   30.19261
   5.31532    0.18154   11.55470    1.10240   30.35684
   5.33033    0.18251   11.58197    1.11463   30.52285
   5.34535    0.18349   11.60939    1.12708   30.69064
   5.36036    0.18447   11.63696    1.13973   30.86036
   5.37538    0.18546   11.66483    1.15260   31.03200
   5.39039    0.18646   11.69270    1.16569   31.20557
   5.40541    0.18747   11.72071    1.17901   31.38107
   5.42042    0.18849   11.74887    1.19256   31.55850
   5.43544    0.18952   11.77733    1.20634   31.73815
   5.45045    0.19055   11.80579    1.22036   31.91972
   5.46547    0.19160   11.83455    1.23463   32.10352
   5.48048    0.19265   11.86330    1.24915   32.28939
   5.49550    0.19372   11.89235    1.26394   32.47749
   5.51051    0.19479   11.92141    1.27898   32.66781
   5.52553    0.19588   11.95076    1.29430   32.86035
   5.54054    0.19697   11.98025    1.30990   33.05527
   5.55556    0.19807   12.00990    1.32578   33.25256
   5.57057    0.19919   12.03969    1.34196   33.45206
   5.58559    0.20031   12.06963    1.35843   33.65409
   5.60060    0.20145   12.09972    1.37521   33.85865
   5.61562    0.20259   12.13011    1.39230   34.06572
   5.63063    0.20375   12.16049    1.40972   34.27545
   5.64565    0.20492   12.19118    1.42746   34.48771
   5.66066    0.20609   12.22201    1.44555   34.70249
   5.67568    0.20728   12.25299    1.46398   34.92023
   5.69069    0.20848   12.28426    1.48277   35.14064
   5.70571    0.20969   12.31554    1.50192   35.36386
   5.72072    0.21092   12.34711    1.52145   35.59006
   5.73574    0.21215   12.37883    1.54137   35.81907
   5.75075    0.21340   12.41084    1.56168   36.05119
   5.76577    0.21465   12.44286    1.58240   36.28627
   5.78078    0.21592   12.47517    1.60353   36.52446
   5.79580    0.21721   12.50764    1.62509   36.76592
   5.81081    0.21850   12.54039    1.64709   37.01064
   5.82583    0.21981   12.57330    1.66954   37.25847
   5.84084    0.22113   12.60635    1.69246   37.50986
   5.85586    0.22247   12.63955    1.71585   37.76466
   5.87087    0.22381   12.67305    1.73973   38.02301
   5.88589    0.22517   12.70670    1.76412   38.28493
   5.90090    0.22655   12.74064    1.78903   38.55055
   5.91592    0.22794   12.77474    1.81447   38.81987
   5.93093    0.22934   12.80898    1.84045   39.09290
   5.94595    0.23075   12.84351    1.86701   39.37008
   5.96096    0.23218   12.87835    1.89414   39.65112
   5.97598    0.23363   12.91318    1.92187   39.93615
   5.99099    0.23509   12.94831    1.95022   40.22549
   6.00601    0.23656   12.98373    1.97921   40.51912
   6.02102    0.23805   13.01931    2.00884   40.81690
   6.03604    0.23956   13.05518    2.03915   41.11928
   6.05105    0.24108   13.09120    2.07016   41.42625
   6.06607    0.24262   13.12751    2.10188   41.73782
   6.08108    0.24417   13.16397    2.13433   42.05428
   6.09610    0.24574   13.20073    2.16755   42.37548
   6.11111    0.24733   13.23779    2.20155   42.70173
   6.12613    0.24893   13.27499    2.23636   43.03301
   6.14114    0.25055   13.31235    2.27201   43.36963
   6.15616    0.25219   13.35014    2.30852   43.71143
   6.17117    0.25384   13.38809    2.34592   44.05887
   6.18619    0.25552   13.42618    2.38424   44.41194
   6.20120    0.25721   13.46472    2.42351   44.77065
   6.21622    0.25892   13.50341    2.46376   45.13543
   6.23123    0.26065   13.54239    2.50502   45.50613
   6.24625    0.26239   13.58152    2.54734   45.88292
   6.26126    0.26416   13.62110    2.59074   46.26623
   6.27628    0.26595   13.66082    2.63526   46.65606
   6.29129    0.26775   13.70084    2.68095   47.05256
   6.30631    0.26958   13.74116    2.72783   47.45588
   6.32132    0.27143   13.78177    2.77596   47.86617
   6.33634    0.27330   13.82254    2.82538   48.28371
   6.35135    0.27519   13.86374    2.87614   48.70882
   6.36637    0.27710   13.90510    2.92828   49.14134
   6.38138    0.27903   13.94675    2.98186   49.58172
   6.39640    0.28099   13.98884    3.03693   50.03025
   6.41141    0.28297   14.03109    3.09354   50.48692
   6.42643    0.28497   14.07363    3.15175   50.95220
   6.44144    0.28699   14.11661    3.21163   51.42607
   6.45646    0.28904   14.15975    3.27323   51.90899
   6.47147    0.29112   14.20332    3.33663   52.40110
   6.48649    0.29321   14.24705    3.40190   52.90269
   6.50150    0.29534   14.29122    3.46910   53.41421
   6.51652    0.29748   14.33569    3.53833   53.93567
   6.53153    0.29966   14.38045    3.60965   54.46749
   6.54655    0.30186   14.42551    3.68315   55.01000
   6.56156    0.30409   14.47102    3.75893   55.56347
   6.57658    0.30634   14.51667    3.83708   56.12835
   6.59159    0.30863   14.56277    3.91769   56.70480
   6.60661    0.31094   14.60931    4.00088   57.29340
   6.62162    0.31328   14.65615    4.08676   57.89445
   6.63664    0.31565   14.70329    4.17544   58.50825
   6.65165    0.31804   14.75072    4.26704   59.13538
   6.66667    0.32047   14.79859    4.36169   59.77616
   6.68168    0.32293   14.84677    4.45954   60.43102
   6.69670    0.32542   14.89538    4.56072   61.10055
   6.71171    0.32795   14.94445    4.66540   61.78519
   6.72673    0.33050   14.99381    4.77372   62.48541
   6.74174    0.33309   15.04346    4.88587   63.20178
   6.75676    0.33572   15.09371    5.00203   63.93490
   6.77177    0.33837   15.14425    5.12239   64.68536
   6.78679    0.34107   15.19510    5.24715   65.45361
   6.80180    0.34380   15.24653    5.37653   66.24053
   6.81682    0.34656   15.29826    5.51076   67.04672
   6.83183    0.34936   15.35043    5.65009   67.87292
   6.84685    0.35220   15.40291    5.79477   68.71973
   6.86186    0.35508   15.45597    5.94509   69.58804
   6.87688    0.35800   15.50948    6.10135   70.47871
   6.89189    0.36095   15.56328    6.26385   71.39252
   6.90691    0.36395   15.61768    6.43294   72.33048
   6.92192    0.36699   15.67238    6.60897   73.29350
   6.93694    0.37007   15.72767    6.79234   74.28260
   6.95195    0.37320   15.78340    6.98344   75.29883
   6.96697    0.37637   15.83958    7.18273   76.34337
   6.98198    0.37958   15.89620    7.39068   77.41740
   6.99700    0.38285   15.95326    7.60779   78.52213
   7.01201    0.38615   16.01092    7.83460   79.65886
   7.02703    0.38951   16.06903    8.07171   80.82909
   7.04204    0.39291   16.12772    8.31974   82.03416
   7.05706    0.39637   16.18687    8.57938   83.27569
   7.07207    0.39987   16.24645    8.85136   84.55546
   7.08709    0.40343   16.30663    9.13646   85.87525
   7.10210    0.40704   16.36740    9.43556   87.23684
   7.11712    0.41070   16.42862    9.74956   88.64216
   7.13213    0.41442   16.49058   10.07948   90.09342
   7.14715    0.41820   16.55283   10.42641   91.59301
   7.16216    0.42203   16.61583   10.79153   93.14314
   7.17718    0.42593   16.67942   11.17613   94.74649
   7.19219    0.42988   16.74345   11.58162   96.40586
   7.20721    0.43389   16.80822   12.00952   98.12408
   7.22222    0.43797   16.87344   12.46152   99.90426
    7.2372     0.4421    16.9394    12.9395   101.7500
    7.2523     0.4463    17.0060    13.4453   103.6646
    7.2673     0.4506    17.0731    13.9814   105.6521
    7.2823     0.4549    17.1410    14.5499   107.7166
    7.2973     0.4594    17.2095    15.1538   109.8626
    7.3123     0.4638    17.2787    15.7959   112.0948
    7.3273     0.4684    17.3485    16.4794   114.4187
    7.3423     0.4730    17.4189    17.2080   116.8398
    7.3574     0.4778    17.4902    17.9858   119.3639
    7.3724     0.4825    17.5621    18.8172   121.9979
    7.3874     0.4874    17.6347    19.7073   124.7486
    7.4024     0.4924    17.7081    20.6615   127.6239
    7.4174     0.4974    17.7822    21.6862   130.6321
    7.4324     0.5026    17.8571    22.7885   133.7825
    7.4474     0.5078    17.9327    23.9762   137.0846
    7.4625     0.5131    18.0091    25.2583   140.5497
    7.4775     0.5185    18.0864    26.6450   144.1893
    7.4925     0.5240    18.1645    28.1479   148.0163
    7.5075     0.5296    18.2433    29.7802   152.0452
    7.5225     0.5353    18.3231    31.5567   156.2908
    7.5375     0.5411    18.4036    33.4948   160.7706
    7.5526     0.5470    18.4851    35.6145   165.5028
    7.5676     0.5530    18.5674    37.9385   170.5081
    7.5826     0.5591    18.6507    40.4937   175.8089
    7.5976     0.5654    18.7348    43.3111   181.4296
    7.6126     0.5718    18.8199    46.4268   187.3972
    7.6276     0.5782    18.9059    49.8837   193.7414
    7.6426     0.5849    18.9931    53.7319   200.4944
    7.6577     0.5916    19.0810    58.0310   207.6913
    7.6727     0.5985    19.1700    62.8521   215.3700
    7.6877     0.6055    19.2602    68.2801   223.5713
    7.7027     0.6126    19.3513    74.4173   232.3380
    7.7177     0.6199    19.4435    81.3871   241.7149
    7.7327     0.6273    19.5367    89.3397   251.7464
    7.7477     0.6349    19.6312    98.4584   262.4746
    7.7628     0.6427    19.7268   108.9680   273.9353
    7.7778     0.6506    19.8236   121.1460   286.1519
    7.7928     0.6586    19.9214   135.3331   299.1219
    7.8078     0.6669    20.0205   151.9527   312.8058
    7.8228     0.6753    20.1209   171.5270   327.0970
    7.8378     0.6839    20.2226   194.6982   341.7845
    7.8529     0.6927    20.3254   222.2459   356.4912
    7.8679     0.7016    20.4296   255.0956   370.5824
    7.8829     0.7108    20.5353   294.2992   383.0301
    7.8979     0.7202    20.6422   340.9542   392.2283
    7.9129     0.7298    20.7506   396.0019   395.7555
    7.9279     0.7396    20.8604   459.8131   390.1439
    7.9429     0.7496    20.9717   531.4558   370.8000
    7.9580     0.7599    21.0845   607.6328   332.4052
    7.9730     0.7704    21.1988   681.6063   270.2689
    7.9880     0.7811    21.3147   743.0498   182.8761
    8.0030     0.7921    21.4322   780.1642    74.7771
    8.0180     0.8034    21.5514   784.2811   -42.5712
    8.0330     0.8149    21.6724   754.3614  -154.0953
    8.0480     0.8267    21.7949   697.5995  -247.0246
    8.0631     0.8388    21.9193   625.5323  -315.1341
    8.0781     0.8513    22.0454   549.1277  -358.7469
    8.0931     0.8640    22.1735   476.0151  -382.0753
    8.1081     0.8770    22.3035   410.2164  -390.4568
    8.1231     0.8904    22.4354   353.1140  -388.7181
    8.1381     0.9042    22.5694   304.5640  -380.5953
    8.1532     0.9183    22.7053   263.7113  -368.7365
    8.1682     0.9328    22.8435   229.4709  -354.9170
    8.1832     0.9477    22.9837   200.7698  -340.2816
    8.1982     0.9629    23.1263   176.6495  -325.5431
    8.2132     0.9786    23.2711   156.2961  -311.1297
    8.2282     0.9948    23.4181   139.0368  -297.2852
    8.2432     1.0114    23.5677   124.3229  -284.1361
    8.2583     1.0285    23.7198   111.7100  -271.7355
    8.2733     1.0460    23.8744   100.8387  -260.0921
    8.2883     1.0641    24.0317    91.4183  -249.1875
    8.3033     1.0827    24.1916    83.2123  -238.9879
    8.3183     1.1019    24.3543    76.0293  -229.4533
    8.3333     1.1217    24.5199    69.7117  -220.5388
    8.3483     1.1420    24.6884    64.1302  -212.1998
    8.3634     1.1630    24.8601    59.1779  -204.3927
    8.3784     1.1847    25.0348    54.7662  -197.0763
    8.3934     1.2070    25.2129    50.8211  -190.2121
    8.4084     1.2301    25.3941    47.2804  -183.7641
    8.4234     1.2540    25.5788    44.0919  -177.6994
    8.4384     1.2786    25.7671    41.2114  -171.9880
    8.4535     1.3041    25.9592    38.6010  -166.6021
    8.4685     1.3304    26.1548    36.2286  -161.5168
    8.4835     1.3576    26.3546    34.0667  -156.7090
    8.4985     1.3858    26.5583    32.0915  -152.1580
    8.5135     1.4150    26.7662    30.2823  -147.8445
    8.5285     1.4453    26.9785    28.6214  -143.7515
    8.5435     1.4767    27.1954    27.0932  -139.8629
    8.5586     1.5093    27.4168    25.6841  -136.1643
    8.5736     1.5430    27.6431    24.3823  -132.6428
    8.5886     1.5781    27.8745    23.1774  -129.2861
    8.6036     1.6146    28.1109    22.0600  -126.0832
    8.6186     1.6525    28.3528    21.0220  -123.0240
    8.6336     1.6919    28.6004    20.0561  -120.0992
    8.6486     1.7330    28.8538    19.1560  -117.3002
    8.6637     1.7758    29.1132    18.3159  -114.6191
    8.6787     1.8203    29.3790    17.5307  -112.0487
    8.6937     1.8668    29.6513    16.7957  -109.5823
    8.7087     1.9154    29.9305    16.1069  -107.2137
    8.7237     1.9661    30.2168    15.4605  -104.9371
    8.7387     2.0191    30.5105    14.8533  -102.7472
    8.7538     2.0746    30.8122    14.2821  -100.6392
   8.76877    2.13268   31.12197   13.74424  -98.60841
   8.78378    2.19356   31.44021   13.23727  -96.65066
   8.79880    2.25743   31.76735   12.75892  -94.76190
   8.81381    2.32448   32.10382   12.30716  -92.93845
   8.82883    2.39496   32.45007   11.88008  -91.17680
   8.84384    2.46910   32.80655   11.47605  -89.47392
   8.85886    2.54717   33.17385   11.09348  -87.82662
   8.87387    2.62947   33.55256   10.73095  -86.23225
   8.88889    2.71632   33.94313   10.38716  -84.68797
   8.90390    2.80809   34.34616   10.06092  -83.19142
   8.91892    2.90516   34.76252    9.75114  -81.74015
   8.93393    3.00796   35.19267    9.45680  -80.33209
   8.94895    3.11698   35.63779    9.17699  -78.96510
   8.96396    3.23275   36.09832    8.91084  -77.63722
   8.97898    3.35586   36.57531    8.65758  -76.34663
   8.99399    3.48695   37.06978    8.41648  -75.09154
   9.00901    3.62678   37.58294    8.18688  -73.87032
   9.02402    3.77614   38.11551    7.96815  -72.68148
   9.03904    3.93597   38.66927    7.75975  -71.52340
   9.05405    4.10728   39.24513    7.56113  -70.39474
   9.06907    4.29125   39.84484    7.37183  -69.29418
   9.08408    4.48918   40.46991    7.19138  -68.22037
   9.09910    4.70256   41.12195    7.01941  -67.17220
   9.11411    4.93308   41.80304    6.85552  -66.14841
   9.12913    5.18266   42.51526    6.69939  -65.14790
   9.14415    5.45352   43.26083    6.55068  -64.16961
   9.15916    5.74818   44.04227    6.40913  -63.21252
   9.17417    6.06956   44.86240    6.27447  -62.27567
   9.18919    6.42104   45.72388    6.14649  -61.35794
   9.20420    6.80655   46.63042    6.02497  -60.45859
   9.21922    7.23064   47.58528    5.90973  -59.57665
   9.23423    7.69869   48.59261    5.80063  -58.71117
   9.24925    8.21698   49.65657    5.69753  -57.86147
   9.26426    8.79296   50.78189    5.60035  -57.02652
   9.27928    9.43548   51.97362    5.50899  -56.20565
   9.29429   10.15508   53.23738    5.42342  -55.39798
   9.30931   10.96441   54.57866    5.34362  -54.60275
   9.32432   11.87874   56.00370    5.26959  -53.81916
   9.33934   12.91652   57.51885    5.20139  -53.04639
   9.35435   14.10034   59.13005    5.13909  -52.28370
   9.36937   15.45760   60.84264    5.08281  -51.53020
   9.38439   17.02218   62.66091    5.03273  -50.78523
   9.39940   18.83580   64.58679    4.98906  -50.04788
   9.41442   20.95002   66.61776    4.95206  -49.31736
   9.42943   23.42854   68.74449    4.92207  -48.59276
   9.44444   26.34994   70.94637    4.89950  -47.87321
   9.45946   29.81021   73.18441    4.88486  -47.15780
   9.47447   33.92474   75.39191    4.87872  -46.44558
   9.48949   38.82780   77.45847    4.88182  -45.73558
   9.50451   44.66632   79.20825    4.89501  -45.02678
   9.51952   51.58166   80.37167    4.91932  -44.31797
   9.53453   59.66898   80.55206    4.95597  -43.60804
   9.54955   68.90043   79.20188    5.00645  -42.89575
   9.56456   79.00130   75.63885    5.07254  -42.17990
   9.57958   89.29652   69.16055    5.15637  -41.45901
   9.59459   98.61086   59.31400    5.26055  -40.73175
    9.6096   105.3920    46.2892     5.3882   -39.9966
    9.6246   108.1890    31.2133     5.5432   -39.2522
    9.6396   106.3332    15.9746     5.7303   -38.4973
    9.6547   100.3094     2.5326     5.9552   -37.7304
   9.66967   91.48309   -7.82982    6.22507  -36.95091
   9.68469   81.43393  -14.77518    6.54876  -36.15842
   9.69970   71.41925  -18.67659    6.93719  -35.35379
   9.71472   62.19617  -20.21761    7.40388  -34.53937
   9.72973   54.09707  -20.09481    7.96548  -33.72028
   9.74475   47.18257  -18.88100    8.64221  -32.90601
   9.75976   41.37273  -16.99640    9.45817  -32.11249
   9.77478   36.53146  -14.72908   10.44079  -31.36573
   9.78979   32.51232  -12.26721   11.61897  -30.70672
   9.80480   29.17958   -9.72939   13.01790  -30.19742
   9.81982   26.41605   -7.18734   14.64868  -29.92699
   9.83484   24.12426   -4.68227   16.48961  -30.01437
   9.84985   22.22479   -2.23575   18.45864  -30.59867
   9.86487   20.65378    0.14318   20.38464  -31.80566
   9.87988   19.36016    2.45356   22.00109  -33.68256
   9.89490   18.30366    4.69842   22.99699  -36.12048
   9.90991   17.45238    6.88459   23.13561  -38.82788
   9.92493   16.78153    9.02006   22.37572  -41.40965
   9.93994   16.27214   11.11432   20.89527  -43.52230
   9.95496   15.91014   13.17672   18.99460  -44.99031
   9.96997   15.68566   15.21748   16.96583  -45.81333
   9.98499   15.59254   17.24667   15.01560  -46.09777
  10.00000   15.62810   19.27438   13.25487  -45.98372
  10.01502   15.79296   21.31069   11.72330  -45.59922
  10.03003   16.09111   23.36598   10.41890  -45.04427
  10.04505   16.53004   25.45016    9.31990  -44.38971
  10.06006   17.12113   27.57318    8.39796  -43.68341
  10.07508   17.88024   29.74452    7.62479  -42.95601
  10.09009   18.82839   31.97323    6.97504  -42.22659
  10.10511   19.99282   34.26701    6.42712  -41.50652
  10.12012   21.40837   36.63134    5.96322  -40.80238
  10.13514   23.11926   39.06844    5.56878  -40.11721
  10.15015   25.18079   41.57463    5.23210  -39.45235
  10.16517   27.66241   44.13684    4.94369  -38.80787
  10.18018   30.64997   46.72750    4.69593  -38.18295
  10.19520   34.24819   49.29564    4.48267  -37.57656
  10.21021   38.58158   51.75484    4.29893  -36.98722
  10.22523   43.79138   53.96353    4.14071  -36.41352
  10.24024   50.02392   55.70102    4.00476  -35.85397
  10.25526   57.40193   56.63424    3.88846  -35.30695
  10.27027   65.96632   56.28740    3.78969  -34.77112
  10.28529   75.57447   54.03453    3.70679  -34.24492
  10.30030   85.75513   49.15942    3.63841  -33.72710
  10.31532   95.56688   41.04828    3.58355  -33.21617
   10.3303   103.5937    29.5419     3.5414   -32.7109
   10.3453   108.2540    15.3180     3.5116   -32.2101
  10.36      108.4     -.2861E-1   3.494     -31.71   
   10.3754   104.0771   -14.4636     3.4877   -31.2165
  10.39039   96.20752  -26.31728    3.49366  -30.72118
  10.40541   86.39154  -34.81633    3.51198  -30.22514
  10.42042   76.08260  -40.05095    3.54320  -29.72711
  10.43544   66.27187  -42.60827    3.58812  -29.22574
  10.45045   57.47137  -43.20621    3.64780  -28.71970
  10.46547   49.84867  -42.48458    3.72363  -28.20751
  10.48048   43.37493  -40.93518    3.81733  -27.68776
  10.49550   37.93141  -38.90458    3.93106  -27.15875
  10.51051   33.37139  -36.62437    4.06751  -26.61906
  10.52553   29.55123  -34.24344    4.22996  -26.06693
  10.54054   26.34324  -31.85383    4.42248  -25.50085
  10.55556   23.63925  -29.51070    4.65008  -24.91922
  10.57057   21.34999  -27.24487    4.91895  -24.32054
  10.58559   19.40270  -25.07211    5.23674  -23.70393
  10.60060   17.73853  -22.99838    5.61295  -23.06886
  10.61562   16.30990  -21.02410    6.05934  -22.41586
  10.63063   15.07835  -19.14602    6.59051  -21.74722
  10.64565   14.01272  -17.35895    7.22445  -21.06798
  10.66066   13.08761  -15.65659    7.98318  -20.38733
  10.67568   12.28245  -14.03257    8.89300  -19.72150
  10.69069   11.58025  -12.48014    9.98440  -19.09674
  10.70571   10.96709  -10.99278   11.29033  -18.55505
  10.72072   10.43150   -9.56427   12.84152  -18.16025
  10.73574    9.96399   -8.18859   14.65645  -18.00580
  10.75075    9.55671   -6.86035   16.72267  -18.21910
  10.76577    9.20316   -5.57413   18.96771  -18.95570
  10.78078    8.89798   -4.32512   21.22479  -20.36902
  10.79580    8.63675   -3.10857   23.21519  -22.54518
  10.81081    8.41588   -1.92018   24.58635  -25.41318
  10.82583    8.23247   -0.75580   25.03024  -28.69065
  10.84084    8.08424    0.38864   24.43292  -31.94136
  10.85586    7.96950    1.51678   22.93885  -34.74036
  10.87087    7.88703    2.63247   20.87008  -36.83151
  10.88589    7.83612    3.73926   18.57487  -38.16776
  10.90090    7.81653    4.84087   16.31850  -38.84833
  10.91592    7.82849    5.94040   14.25437  -39.02983
  10.93093    7.87270    7.04185   12.44547  -38.86523
  10.94595    7.95039    8.14850   10.89919  -38.47777
  10.96096    8.06333    9.26418    9.59460  -37.95683
  10.97598    8.21395   10.39247    8.50026  -37.36327
  10.99099    8.40537   11.53721    7.58337  -36.73658
  11.00601    8.64154   12.70255    6.81388  -36.10180
  11.02102    8.92742   13.89250    6.16597  -35.47392
  11.03604    9.26912   15.11135    5.61817  -34.86168
  11.05105    9.67419   16.36340    5.15292  -34.26975
  11.06607   10.15193   17.65325    4.75601  -33.70005
  11.08108   10.71380   18.98520    4.41597  -33.15310
  11.09610   11.37392   20.36354    4.12355  -32.62838
  11.11111   12.14972   21.79168    3.87129  -32.12486
  11.12613   13.06282   23.27230    3.65315  -31.64113
  11.14114   14.14000   24.80583    3.46426  -31.17571
  11.15616   15.41447   26.38991    3.30067  -30.72703
  11.17117   16.92733   28.01667    3.15917  -30.29347
  11.18619   18.72928   29.66997    3.03719  -29.87355
  11.20120   20.88162   31.32045    2.93266  -29.46586
  11.21622   23.45745   32.91831    2.84394  -29.06892
  11.23123   26.53969   34.38247    2.76978  -28.68138
  11.24625   30.21476   35.58635    2.70922  -28.30200
  11.26126   34.55647   36.33844    2.66164  -27.92959
  11.27628   39.59294   36.36453    2.62666  -27.56281
  11.29129   45.24869   35.30206    2.60421  -27.20062
  11.30631   51.26038   32.73199    2.59447  -26.84192
  11.32132   57.09248   28.28703    2.59792  -26.48558
  11.33634   61.92760   21.85394    2.61537  -26.13066
  11.35135   64.83634   13.80001    2.64801  -25.77596
  11.36637   65.14201    5.03608    2.69745  -25.42074
  11.38138   62.77322   -3.24805    2.76581  -25.06418
  11.39640   58.30467  -10.05170    2.85586  -24.70563
  11.41141   52.64807  -14.89124    2.97112  -24.34485
  11.42643   46.66532  -17.79770    3.11605  -23.98207
  11.44144   40.95380  -19.10519    3.29626  -23.61825
  11.45646   35.82682  -19.23384    3.51869  -23.25562
  11.47147   31.39191  -18.56224    3.79179  -22.89855
  11.48649   27.63653  -17.38282    4.12560  -22.55422
  11.50150   24.49317  -15.90250    4.53142  -22.23458
  11.51652   21.87662  -14.25943    5.02071  -21.95799
  11.53153   19.70286  -12.54232    5.60260  -21.75240
  11.54655   17.89702  -10.80602    6.27879  -21.65709
  11.56156   16.39573   -9.08298    7.03497  -21.72328
  11.57658   15.14678   -7.39107    7.82899  -22.00764
  11.59159   14.10784   -5.73896    8.58033  -22.55563
  11.60661   13.24484   -4.12961    9.17256  -23.37190
  11.62162   12.53054   -2.56221    9.48203  -24.39191
  11.63664   11.94323   -1.03372    9.43017  -25.48047
  11.65165   11.46566    0.46009    9.02568  -26.47654
  11.66667   11.08418    1.92410    8.35950  -27.25613
  11.68168   10.78813    3.36381    7.55735  -27.76862
  11.69670   10.56929    4.78469    6.73019  -28.02882
  11.71171   10.42150    6.19268    5.95085  -28.08626
  11.72673   10.34040    7.59340    5.25536  -27.99770
  11.74174   10.32316    8.99234    4.65409  -27.81227
  11.75676   10.36842   10.39544    4.14328  -27.56718
  11.77177   10.47616   11.80846    3.71296  -27.28844
  11.78679   10.64771   13.23720    3.35143  -26.99325
  11.80180   10.88582   14.68772    3.04742  -26.69265
  11.81682   11.19468   16.16611    2.79102  -26.39346
  11.83183   11.58016   17.67860    2.57387  -26.09953
  11.84685   12.05003   19.23155    2.38910  -25.81316
  11.86186   12.61424   20.83134    2.23111  -25.53532
  11.87688   13.28539   22.48448    2.09539  -25.26644
  11.89189   14.07927   24.19737    1.97829  -25.00645
  11.90691   15.01561   25.97591    1.87687  -24.75499
  11.92192   16.11897   27.82516    1.78875  -24.51160
  11.93694   17.41994   29.74838    1.71201  -24.27563
  11.95195   18.95658   31.74600    1.64510  -24.04662
  11.96697   20.77621   33.81373    1.58673  -23.82392
  11.98198   22.93755   35.93942    1.53591  -23.60691
  11.99700   25.51248   38.09802    1.49179  -23.39518
  12.01201   28.58846   40.24535    1.45372  -23.18803
  12.02703   32.26865   42.30641    1.42118  -22.98504
  12.04204   36.66891   44.16011    1.39377  -22.78560
  12.05706   41.90707   45.61834    1.37121  -22.58943
  12.07207   48.07738   46.39859    1.35330  -22.39585
  12.08709   55.19959   46.10185    1.33994  -22.20456
  12.10210   63.13190   44.20961    1.33114  -22.01506
  12.11712   71.45113   40.14426    1.32697  -21.82696
  12.13213   79.34550   33.44154    1.32764  -21.63983
  12.14715   85.63652   24.04677    1.33344  -21.45329
  12.16216   89.06808   12.60828    1.34480  -21.26682
  12.17718   88.83527    0.48988    1.36231  -21.08013
  12.19219   85.01673  -10.67076    1.38671  -20.89285
  12.20721   78.52990  -19.60767    1.41898  -20.70460
  12.22222   70.65166  -25.79886    1.46036  -20.51525
  12.23724   62.51308  -29.38856    1.51240  -20.32456
  12.25225   54.86100  -30.87607    1.57707  -20.13268
  12.26727   48.06504  -30.83724    1.65682  -19.93999
  12.28228   42.23462  -29.77195    1.75467  -19.74744
  12.29730   37.33469  -28.05840    1.87433  -19.55690
  12.31231   33.26639  -25.96035    2.02020  -19.37118
  12.32733   29.91310  -23.65220    2.19728  -19.19538
  12.34234   27.16301  -21.24473    2.41075  -19.03715
  12.35736   24.91825  -18.80503    2.66499  -18.90820
  12.37237   23.09721  -16.37185    2.96151  -18.82534
  12.38739   21.63386  -13.96513    3.29540  -18.81066
  12.40240   20.47589  -11.59309    3.65018  -18.88944
  12.41742   19.58273   -9.25648    3.99276  -19.08369
  12.43243   18.92362   -6.95114    4.27312  -19.39934
  12.44745   18.47620   -4.66996    4.43512  -19.81281
  12.46246   18.22528   -2.40428    4.43881  -20.26808
  12.47748   18.16207   -0.14407    4.28139  -20.69297
  12.49249   18.28372    2.12109    3.99879  -21.02788
  12.50751   18.59317    4.40183    3.64640  -21.24466
  12.52252   19.09915    6.70820    3.27596  -21.34619
  12.53754   19.81681    9.05030    2.92292  -21.35309
  12.55255   20.76835   11.43612    2.60568  -21.29076
  12.56757   21.98418   13.87204    2.33035  -21.18196
  12.58258   23.50444   16.36044    2.09597  -21.04419
  12.59760   25.38093   18.89760    1.89836  -20.88981
  12.61261   27.67931   21.47004    1.73233  -20.72706
  12.62763   30.48162   24.04944    1.59277  -20.56127
  12.64264   33.88816   26.58334    1.47515  -20.39563
  12.65766   38.01781   28.98235    1.37563  -20.23214
  12.67267   43.00402   31.10226    1.29102  -20.07191
  12.68769   48.98127   32.71761    1.21874  -19.91538
  12.70270   56.05368   33.49223    1.15671  -19.76293
  12.71772   64.23313   32.95166    1.10322  -19.61434
  12.73273   73.33479   30.48491    1.05692  -19.46960
  12.74775   82.83611   25.42155    1.01671  -19.32849
  12.76276   91.75749   17.24267    0.98169  -19.19071
  12.77778   98.70553    5.93328    0.95112  -19.05605
   12.7928   102.2330    -7.6865     0.9244   -18.9242
   12.8078   101.4649   -21.9859     0.9011   -18.7950
  12.82282   96.57093  -35.06764    0.88080  -18.66807
  12.83784   88.66879  -45.51466    0.86314  -18.54327
  12.85285   79.24672  -52.78470    0.84789  -18.42031
  12.86787   69.59183  -57.08892    0.83482  -18.29899
  12.88288   60.53575  -59.02525    0.82377  -18.17908
  12.89790   52.48037  -59.26197    0.81461  -18.06042
  12.91291   45.53484  -58.37247    0.80724  -17.94281
  12.92793   39.64838  -56.78802    0.80158  -17.82601
  12.94294   34.70074  -54.80886    0.79760  -17.70987
  12.95796   30.55342  -52.63366    0.79528  -17.59426
  12.97297   27.07426  -50.38924    0.79464  -17.47894
  12.98799   24.14727  -48.15372    0.79570  -17.36370
  13.00300   21.67488  -45.97311    0.79853  -17.24845
  13.01802   19.57684  -43.87292    0.80324  -17.13291
  13.03303   17.78788  -41.86574    0.80996  -17.01707
  13.04805   16.25552  -39.95616    0.81884  -16.90064
  13.06306   14.93717  -38.14397    0.83010  -16.78362
  13.07808   13.79851  -36.42604    0.84399  -16.66578
  13.09309   12.81176  -34.79787    0.86077  -16.54705
  13.10811   11.95426  -33.25448    0.88075  -16.42758
  13.12312   11.20726  -31.79091    0.90418  -16.30730
  13.13814   10.55488  -30.40242    0.93125  -16.18642
  13.15315    9.98311  -29.08478    0.96196  -16.06510
  13.16817    9.47900  -27.83332    0.99611  -15.94333
  13.18318    9.03057  -26.64256    1.03337  -15.82053
  13.19820    8.62732  -25.50523    1.07362  -15.69580
  13.21321    8.26151  -24.41281    1.11739  -15.56766
  13.22823    7.92886  -23.35656    1.16609  -15.43470
  13.24324    7.62797  -22.32959    1.22191  -15.29574
  13.25826    7.35876  -21.32715    1.28746  -15.15048
  13.27327    7.12118  -20.34627    1.36557  -14.99907
  13.28829    6.91459  -19.38511    1.45925  -14.84195
  13.30330    6.73790  -18.44203    1.57188  -14.68024
  13.31832    6.58982  -17.51525    1.70739  -14.51519
  13.33333    6.46910  -16.60293    1.87051  -14.34925
  13.34835    6.37471  -15.70276    2.06689  -14.18591
  13.36336    6.30594  -14.81245    2.30305  -14.03116
  13.37838    6.26244  -13.92955    2.58606  -13.89413
  13.39339    6.24427  -13.05162    2.92252  -13.78874
  13.40841    6.25188  -12.17591    3.31635  -13.73531
  13.42342    6.28617  -11.29990    3.76480  -13.76139
  13.43844    6.34852  -10.42078    4.25207  -13.90080
  13.45345    6.44084   -9.53573    4.74193  -14.18680
  13.46847    6.56564   -8.64186    5.17389  -14.63785
  13.48348    6.72614   -7.73614    5.47152  -15.23860
  13.49850    6.92639   -6.81544    5.56813  -15.92762
  13.51351    7.17145   -5.87666    5.43917  -16.61034
  13.52853    7.46759   -4.91654    5.11611  -17.19479
  13.54354    7.82257   -3.93195    4.66880  -17.62553
  13.55856    8.24602   -2.91980    4.17265  -17.89249
  13.57358    8.74979   -1.87764    3.68512  -18.01729
  13.58859    9.34869   -0.80338    3.23937  -18.03382
  13.60360   10.06102    0.30342    2.84901  -17.97519
  13.61862   10.90949    1.44134    2.51561  -17.86810
  13.63363   11.92245    2.60549    2.23458  -17.73196
  13.64865   13.13443    3.78477    1.99917  -17.57988
  13.66366   14.58798    4.96004    1.80222  -17.42032
  13.67868   16.33317    6.09766    1.63728  -17.25890
  13.69369   18.42788    7.14324    1.49871  -17.09859
  13.70871   20.93250    8.01109    1.38189  -16.94148
  13.72372   23.89972    8.57183    1.28302  -16.78851
  13.73874   27.35384    8.63853    1.19902  -16.64006
  13.75375   31.24940    7.96263    1.12742  -16.49628
  13.76877   35.41655    6.25197    1.06620  -16.35695
  13.78378   39.49727    3.24256    1.01378  -16.22199
  13.79880   42.93479   -1.16719    0.96883  -16.09097
  13.81381   45.07668   -6.75170    0.93031  -15.96357
  13.82883   45.42442  -12.90325    0.89738  -15.83943
  13.84384   43.88792  -18.79258    0.86934  -15.71818
  13.85886   40.83738  -23.69852    0.84566  -15.59960
  13.87387   36.90314  -27.24902    0.82588  -15.48324
  13.88889   32.69881  -29.44163    0.80967  -15.36889
  13.90390   28.66141  -30.49899    0.79677  -15.25624
  13.91892   25.02542  -30.71577    0.78698  -15.14492
  13.93393   21.87720  -30.36247    0.78017  -15.03486
  13.94895   19.21383  -29.65137    0.77625  -14.92585
  13.96397   16.99165  -28.73497    0.77519  -14.81757
  13.97898   15.15229  -27.71852    0.77693  -14.71018
  13.99400   13.63544  -26.67272    0.78141  -14.60338
  14.00901   12.38487  -25.64582    0.78847  -14.49733
  14.02402   11.34728  -24.66946    0.79783  -14.39194
  14.03904   10.47223  -23.76240    0.80910  -14.28685
  14.05406    9.71190  -22.92916    0.82191  -14.18154
  14.06907    9.02610  -22.16010    0.83614  -14.07511
  14.08409    8.38790  -21.43483    0.85209  -13.96668
  14.09910    7.78704  -20.73151    0.87049  -13.85522
  14.11411    7.22526  -20.03463    0.89226  -13.74035
  14.12913    6.70897  -19.33879    0.91837  -13.62162
  14.14415    6.24262  -18.64561    0.94973  -13.49904
  14.15916    5.82700  -17.96015    0.98720  -13.37230
  14.17418    5.45946  -17.28721    1.03173  -13.24127
  14.18919    5.13565  -16.63072    1.08439  -13.10572
  14.20420    4.85045  -15.99269    1.14646  -12.96535
  14.21922    4.59893  -15.37422    1.21954  -12.81980
  14.23423    4.37660  -14.77540    1.30560  -12.66890
  14.24925    4.17948  -14.19554    1.40712  -12.51260
  14.26427    4.00423  -13.63399    1.52713  -12.35089
  14.27928    3.84797  -13.08942    1.66948  -12.18443
  14.29429    3.70833  -12.56092    1.83885  -12.01449
  14.30931    3.58327  -12.04710    2.04107  -11.84322
  14.32432    3.47111  -11.54699    2.28305  -11.67484
  14.33934    3.37039  -11.05926    2.57297  -11.51579
  14.35435    3.27990  -10.58316    2.91968  -11.37676
  14.36937    3.19860  -10.11744    3.33190  -11.27404
  14.38438    3.12560   -9.66128    3.81543  -11.23150
  14.39940    3.06014   -9.21371    4.36897  -11.28226
  14.41441    3.00158   -8.77408    4.97617  -11.46777
  14.42943    2.94934   -8.34141    5.59679  -11.83099
  14.44444    2.90295   -7.91512    6.15988  -12.40039
  14.45946    2.86199   -7.49438    6.57119  -13.16575
  14.47448    2.82609   -7.07861    6.74144  -14.06021
  14.48949    2.79496   -6.66729    6.62798  -14.96920
  14.50451    2.76832   -6.25967    6.25836  -15.77295
  14.51952    2.74597   -5.85524    5.71487  -16.39149
  14.53454    2.72769   -5.45348    5.09388  -16.80281
  14.54955    2.71334   -5.05379    4.47295  -17.02878
  14.56457    2.70278   -4.65566    3.89894  -17.11090
  14.57958    2.69591   -4.25871    3.39280  -17.09185
  14.59460    2.69266   -3.86229    2.95842  -17.00684
  14.60961    2.69297   -3.46601    2.59113  -16.88182
  14.62463    2.69679   -3.06936    2.28253  -16.73463
  14.63964    2.70413   -2.67190    2.02369  -16.57699
  14.65466    2.71499   -2.27302    1.80617  -16.41624
  14.66967    2.72938   -1.87245    1.62275  -16.25698
  14.68469    2.74737   -1.46950    1.46732  -16.10186
  14.69970    2.76902   -1.06373    1.33492  -15.95230
  14.71472    2.79442   -0.65471    1.22149  -15.80904
  14.72973    2.82367   -0.24183    1.12377  -15.67223
  14.74475    2.85692    0.17535    1.03909  -15.54187
  14.75976    2.89432    0.59749    0.96532  -15.41773
  14.77478    2.93605    1.02512    0.90072  -15.29945
  14.78979    2.98233    1.45883    0.84385  -15.18665
  14.80481    3.03340    1.89920    0.79356  -15.07904
  14.81982    3.08953    2.34699    0.74887  -14.97624
  14.83484    3.15103    2.80278    0.70900  -14.87782
  14.84985    3.21827    3.26746    0.67328  -14.78348
  14.86487    3.29162    3.74163    0.64114  -14.69298
  14.87988    3.37156    4.22618    0.61213  -14.60598
  14.89490    3.45858    4.72199    0.58586  -14.52216
  14.90991    3.55325    5.23010    0.56197  -14.44137
  14.92492    3.65621    5.75141    0.54020  -14.36333
  14.93994    3.76821    6.28709    0.52029  -14.28789
  14.95496    3.89003    6.83819    0.50204  -14.21489
  14.96997    4.02265    7.40604    0.48526  -14.14403
  14.98499    4.16708    7.99197    0.46979  -14.07526
  15.00000    4.32457    8.59747    0.45551  -14.00841
# 
# YAMBO@anomaly.roma2.infn.it x 001 CPUs * 08/29/2008  10:04 [start]
#                                          08/29/2008  10:05 [end]
# 
# Cpu Timing [Min/Max/Average]: 04s/04s/04s
#
# .-Input file : Inputs/03_RPA_LF_xl
# | optics                       # [R OPT] Optics
# | bse                          # [R BSK] Bethe Salpeter Equation.
# | bss                          # [R BSS] Bethe Salpeter Equation solver
# | FFTGvecs=  9987          RL  # [FFT] Plane-waves
# | BSresKmod= "x"               # [BSK] Resonant Kernel mode. (`x`;`c`;`d`)
# | % BSEBands
# |    1 | 200 |                 # [BSK] Bands range
# | %
# | BSENGBlk= 1              RL  # [BSK] Screened interaction block size
# | BSENGexx=  9045          RL  # [BSK] Exchange components
# | BSSmod= "d"                  # [BSS] Solvers `h/d/i/t`
# | % BEnRange
# |   0.00000 | 15.00000 |   eV  # [BSS] Energy range
# | %
# | % BDmRange
# |   0.10000 |  0.10000 |   eV  # [BSS] Damping range
# | %
# | BEnSteps= 1000               # [BSS] Energy steps
# | % BLongDir
# | 0.1000E-4 | 0.000    | 0.000    |      # [BSS] [cc] Electric Field
# | %
