#  __      __   ______   __       __  _______    ______     
# |  \    /  \ /      \ |  \     /  \|       \  /      \    
#  \$$\  /  $$|  $$$$$$\| $$\   /  $$| $$$$$$$\|  $$$$$$\   
#   \$$\/  $$ | $$__| $$| $$$\ /  $$$| $$__/ $$| $$  | $$   
#    \$$  $$  | $$    $$| $$$$\  $$$$| $$    $$| $$  | $$   
#     \$$$$   | $$$$$$$$| $$\$$ $$ $$| $$$$$$$\| $$  | $$   
#     | $$    | $$  | $$| $$ \$$$| $$| $$__/ $$| $$__/ $$   
#     | $$    | $$  | $$| $$  \$ | $$| $$    $$ \$$    $$   
#      \$$     \$$   \$$ \$$      \$$ \$$$$$$$   \$$$$$$    
#                                                           
# GPL Version 4.4.0 Revision 148. (Based on r.16920 h.961a8d
#                  MPI+SLK+OpenMP Build                     
#                http://www.yambo-code.org                  
#
# Absorption @ Q(1) [q->0 direction] : 0.0000000  0.0000000  1.0000000
#
#
# - Energies      are Slater exchange(X)+Perdew & Zunger(C)
# - Wavefunctions are Slater exchange(X)+Perdew & Zunger(C)
#
# - The Green`s function is T-ordered -
# - Using the Length Gauge -
# - [r,Vnl] *is* included -
#
#    E/ev[1]       EPS-Im[2]     EPS-Re[3]     EPSo-Im[4]    EPSo-Re[5]
#
    0.0000       0.10386E-2     1.1391       0.56005E-2     1.3644   
   0.10000E-1    0.10388E-2     1.1391       0.56005E-2     1.3644   
   0.20000E-1    0.10390E-2     1.1391       0.56005E-2     1.3644   
   0.30000E-1    0.10384E-2     1.1391       0.56006E-2     1.3644   
   0.40000E-1    0.10391E-2     1.1391       0.56006E-2     1.3644   
   0.50000E-1    0.10386E-2     1.1391       0.56008E-2     1.3644   
   0.60000E-1    0.10387E-2     1.1391       0.56009E-2     1.3644   
   0.70000E-1    0.10391E-2     1.1391       0.56010E-2     1.3644   
   0.80000E-1    0.10390E-2     1.1391       0.56012E-2     1.3644   
   0.90000E-1    0.10390E-2     1.1391       0.56014E-2     1.3644   
   0.10000       0.10390E-2     1.1391       0.56016E-2     1.3644   
   0.11000       0.10390E-2     1.1391       0.56019E-2     1.3644   
   0.12000       0.10389E-2     1.1391       0.56022E-2     1.3644   
   0.13000       0.10386E-2     1.1391       0.56024E-2     1.3644   
   0.14000       0.10387E-2     1.1391       0.56028E-2     1.3644   
   0.15000       0.10389E-2     1.1391       0.56031E-2     1.3645   
   0.16000       0.10388E-2     1.1391       0.56035E-2     1.3645   
   0.17000       0.10388E-2     1.1391       0.56039E-2     1.3645   
   0.18000       0.10392E-2     1.1391       0.56043E-2     1.3645   
   0.19000       0.10395E-2     1.1391       0.56047E-2     1.3645   
   0.20000       0.10398E-2     1.1391       0.56052E-2     1.3645   
   0.21000       0.10403E-2     1.1391       0.56056E-2     1.3645   
   0.22000       0.10397E-2     1.1391       0.56061E-2     1.3645   
   0.23000       0.10397E-2     1.1391       0.56067E-2     1.3645   
   0.24000       0.10397E-2     1.1391       0.56072E-2     1.3645   
   0.25000       0.10398E-2     1.1391       0.56078E-2     1.3645   
   0.26000       0.10402E-2     1.1391       0.56084E-2     1.3646   
   0.27000       0.10404E-2     1.1391       0.56090E-2     1.3646   
   0.28000       0.10404E-2     1.1391       0.56097E-2     1.3646   
   0.29000       0.10397E-2     1.1391       0.56103E-2     1.3646   
   0.30000       0.10403E-2     1.1391       0.56110E-2     1.3646   
   0.31000       0.10402E-2     1.1391       0.56118E-2     1.3646   
   0.32000       0.10407E-2     1.1391       0.56125E-2     1.3646   
   0.33000       0.10402E-2     1.1391       0.56133E-2     1.3647   
   0.34000       0.10407E-2     1.1391       0.56141E-2     1.3647   
   0.35000       0.10412E-2     1.1391       0.56149E-2     1.3647   
   0.36000       0.10411E-2     1.1391       0.56157E-2     1.3647   
   0.37000       0.10412E-2     1.1391       0.56166E-2     1.3647   
   0.38000       0.10411E-2     1.1391       0.56174E-2     1.3647   
   0.39000       0.10411E-2     1.1391       0.56184E-2     1.3648   
   0.40000       0.10415E-2     1.1391       0.56193E-2     1.3648   
   0.41000       0.10413E-2     1.1392       0.56202E-2     1.3648   
   0.42000       0.10420E-2     1.1392       0.56212E-2     1.3648   
   0.43000       0.10418E-2     1.1392       0.56222E-2     1.3648   
   0.44000       0.10422E-2     1.1392       0.56232E-2     1.3648   
   0.45000       0.10425E-2     1.1392       0.56243E-2     1.3649   
   0.46000       0.10425E-2     1.1392       0.56254E-2     1.3649   
   0.47000       0.10424E-2     1.1392       0.56265E-2     1.3649   
   0.48000       0.10430E-2     1.1392       0.56276E-2     1.3649   
   0.49000       0.10433E-2     1.1392       0.56287E-2     1.3650   
   0.50000       0.10433E-2     1.1392       0.56299E-2     1.3650   
   0.51000       0.10435E-2     1.1392       0.56311E-2     1.3650   
   0.52000       0.10436E-2     1.1392       0.56323E-2     1.3650   
   0.53000       0.10439E-2     1.1392       0.56336E-2     1.3650   
   0.54000       0.10438E-2     1.1392       0.56348E-2     1.3651   
   0.55000       0.10442E-2     1.1392       0.56361E-2     1.3651   
   0.56000       0.10446E-2     1.1392       0.56374E-2     1.3651   
   0.57000       0.10447E-2     1.1392       0.56388E-2     1.3651   
   0.58000       0.10448E-2     1.1392       0.56401E-2     1.3652   
   0.59000       0.10445E-2     1.1392       0.56415E-2     1.3652   
   0.60000       0.10449E-2     1.1392       0.56429E-2     1.3652   
   0.61000       0.10453E-2     1.1392       0.56444E-2     1.3653   
   0.62000       0.10458E-2     1.1393       0.56458E-2     1.3653   
   0.63000       0.10458E-2     1.1393       0.56473E-2     1.3653   
   0.64000       0.10460E-2     1.1393       0.56488E-2     1.3653   
   0.65000       0.10461E-2     1.1393       0.56503E-2     1.3654   
   0.66000       0.10465E-2     1.1393       0.56519E-2     1.3654   
   0.67000       0.10471E-2     1.1393       0.56535E-2     1.3654   
   0.68000       0.10466E-2     1.1393       0.56551E-2     1.3655   
   0.69000       0.10470E-2     1.1393       0.56567E-2     1.3655   
   0.70000       0.10474E-2     1.1393       0.56583E-2     1.3655   
   0.71000       0.10479E-2     1.1393       0.56600E-2     1.3656   
   0.72000       0.10476E-2     1.1393       0.56617E-2     1.3656   
   0.73000       0.10481E-2     1.1393       0.56635E-2     1.3656   
   0.74000       0.10487E-2     1.1393       0.56652E-2     1.3657   
   0.75000       0.10488E-2     1.1393       0.56670E-2     1.3657   
   0.76000       0.10493E-2     1.1393       0.56688E-2     1.3657   
   0.77000       0.10490E-2     1.1393       0.56706E-2     1.3658   
   0.78000       0.10495E-2     1.1394       0.56724E-2     1.3658   
   0.79000       0.10499E-2     1.1394       0.56743E-2     1.3658   
   0.80000       0.10502E-2     1.1394       0.56762E-2     1.3659   
   0.81000       0.10506E-2     1.1394       0.56781E-2     1.3659   
   0.82000       0.10509E-2     1.1394       0.56801E-2     1.3660   
   0.83000       0.10510E-2     1.1394       0.56821E-2     1.3660   
   0.84000       0.10514E-2     1.1394       0.56841E-2     1.3660   
   0.85000       0.10521E-2     1.1394       0.56861E-2     1.3661   
   0.86000       0.10521E-2     1.1394       0.56881E-2     1.3661   
   0.87000       0.10526E-2     1.1394       0.56902E-2     1.3661   
   0.88000       0.10524E-2     1.1394       0.56923E-2     1.3662   
   0.89000       0.10533E-2     1.1394       0.56944E-2     1.3662   
   0.90000       0.10529E-2     1.1394       0.56966E-2     1.3663   
   0.91000       0.10540E-2     1.1395       0.56987E-2     1.3663   
   0.92000       0.10535E-2     1.1395       0.57009E-2     1.3664   
   0.93000       0.10545E-2     1.1395       0.57031E-2     1.3664   
   0.94000       0.10541E-2     1.1395       0.57054E-2     1.3664   
   0.95000       0.10548E-2     1.1395       0.57077E-2     1.3665   
   0.96000       0.10553E-2     1.1395       0.57100E-2     1.3665   
   0.97000       0.10560E-2     1.1395       0.57123E-2     1.3666   
   0.98000       0.10563E-2     1.1395       0.57146E-2     1.3666   
   0.99000       0.10567E-2     1.1395       0.57170E-2     1.3667   
    1.0000       0.10568E-2     1.1395       0.57194E-2     1.3667   
    1.0100       0.10568E-2     1.1395       0.57218E-2     1.3668   
    1.0200       0.10573E-2     1.1396       0.57243E-2     1.3668   
    1.0300       0.10577E-2     1.1396       0.57267E-2     1.3669   
    1.0400       0.10581E-2     1.1396       0.57292E-2     1.3669   
    1.0500       0.10586E-2     1.1396       0.57318E-2     1.3670   
    1.0600       0.10588E-2     1.1396       0.57343E-2     1.3670   
    1.0700       0.10594E-2     1.1396       0.57369E-2     1.3670   
    1.0800       0.10596E-2     1.1396       0.57395E-2     1.3671   
    1.0900       0.10604E-2     1.1396       0.57421E-2     1.3672   
    1.1000       0.10606E-2     1.1396       0.57448E-2     1.3672   
    1.1100       0.10610E-2     1.1396       0.57474E-2     1.3673   
    1.1200       0.10617E-2     1.1396       0.57501E-2     1.3673   
    1.1300       0.10613E-2     1.1397       0.57529E-2     1.3674   
    1.1400       0.10623E-2     1.1397       0.57556E-2     1.3674   
    1.1500       0.10623E-2     1.1397       0.57584E-2     1.3675   
    1.1600       0.10632E-2     1.1397       0.57612E-2     1.3675   
    1.1700       0.10636E-2     1.1397       0.57640E-2     1.3676   
    1.1800       0.10641E-2     1.1397       0.57669E-2     1.3676   
    1.1900       0.10642E-2     1.1397       0.57698E-2     1.3677   
    1.2000       0.10649E-2     1.1397       0.57727E-2     1.3677   
    1.2100       0.10654E-2     1.1397       0.57756E-2     1.3678   
    1.2200       0.10659E-2     1.1398       0.57786E-2     1.3679   
    1.2300       0.10661E-2     1.1398       0.57816E-2     1.3679   
    1.2400       0.10665E-2     1.1398       0.57846E-2     1.3680   
    1.2500       0.10674E-2     1.1398       0.57877E-2     1.3680   
    1.2600       0.10678E-2     1.1398       0.57907E-2     1.3681   
    1.2700       0.10678E-2     1.1398       0.57938E-2     1.3681   
    1.2800       0.10684E-2     1.1398       0.57970E-2     1.3682   
    1.2900       0.10691E-2     1.1398       0.58001E-2     1.3683   
    1.3000       0.10694E-2     1.1399       0.58033E-2     1.3683   
    1.3100       0.10700E-2     1.1399       0.58065E-2     1.3684   
    1.3200       0.10701E-2     1.1399       0.58097E-2     1.3684   
    1.3300       0.10707E-2     1.1399       0.58130E-2     1.3685   
    1.3400       0.10720E-2     1.1399       0.58163E-2     1.3686   
    1.3500       0.10715E-2     1.1399       0.58196E-2     1.3686   
    1.3600       0.10722E-2     1.1399       0.58229E-2     1.3687   
    1.3700       0.10727E-2     1.1399       0.58263E-2     1.3688   
    1.3800       0.10733E-2     1.1399       0.58297E-2     1.3688   
    1.3900       0.10734E-2     1.1400       0.58331E-2     1.3689   
    1.4000       0.10740E-2     1.1400       0.58365E-2     1.3690   
    1.4100       0.10752E-2     1.1400       0.58400E-2     1.3690   
    1.4200       0.10750E-2     1.1400       0.58435E-2     1.3691   
    1.4300       0.10761E-2     1.1400       0.58470E-2     1.3692   
    1.4400       0.10766E-2     1.1400       0.58506E-2     1.3692   
    1.4500       0.10772E-2     1.1400       0.58542E-2     1.3693   
    1.4600       0.10775E-2     1.1401       0.58578E-2     1.3694   
    1.4700       0.10781E-2     1.1401       0.58614E-2     1.3694   
    1.4800       0.10787E-2     1.1401       0.58651E-2     1.3695   
    1.4900       0.10790E-2     1.1401       0.58688E-2     1.3696   
    1.5000       0.10803E-2     1.1401       0.58725E-2     1.3696   
    1.5100       0.10805E-2     1.1401       0.58762E-2     1.3697   
    1.5200       0.10811E-2     1.1401       0.58800E-2     1.3698   
    1.5300       0.10815E-2     1.1402       0.58838E-2     1.3699   
    1.5400       0.10826E-2     1.1402       0.58877E-2     1.3699   
    1.5500       0.10826E-2     1.1402       0.58915E-2     1.3700   
    1.5600       0.10832E-2     1.1402       0.58954E-2     1.3701   
    1.5700       0.10840E-2     1.1402       0.58993E-2     1.3702   
    1.5800       0.10845E-2     1.1402       0.59033E-2     1.3702   
    1.5900       0.10846E-2     1.1402       0.59072E-2     1.3703   
    1.6000       0.10858E-2     1.1403       0.59112E-2     1.3704   
    1.6100       0.10863E-2     1.1403       0.59153E-2     1.3705   
    1.6200       0.10868E-2     1.1403       0.59193E-2     1.3705   
    1.6300       0.10875E-2     1.1403       0.59234E-2     1.3706   
    1.6400       0.10880E-2     1.1403       0.59275E-2     1.3707   
    1.6500       0.10887E-2     1.1403       0.59317E-2     1.3708   
    1.6600       0.10897E-2     1.1403       0.59359E-2     1.3709   
    1.6700       0.10897E-2     1.1404       0.59401E-2     1.3709   
    1.6800       0.10904E-2     1.1404       0.59443E-2     1.3710   
    1.6900       0.10909E-2     1.1404       0.59486E-2     1.3711   
    1.7000       0.10918E-2     1.1404       0.59529E-2     1.3712   
    1.7100       0.10926E-2     1.1404       0.59572E-2     1.3713   
    1.7200       0.10930E-2     1.1404       0.59615E-2     1.3713   
    1.7300       0.10935E-2     1.1405       0.59659E-2     1.3714   
    1.7400       0.10945E-2     1.1405       0.59703E-2     1.3715   
    1.7500       0.10948E-2     1.1405       0.59748E-2     1.3716   
    1.7600       0.10955E-2     1.1405       0.59792E-2     1.3717   
    1.7700       0.10966E-2     1.1405       0.59837E-2     1.3718   
    1.7800       0.10974E-2     1.1405       0.59882E-2     1.3718   
    1.7900       0.10979E-2     1.1406       0.59928E-2     1.3719   
    1.8000       0.10982E-2     1.1406       0.59974E-2     1.3720   
    1.8100       0.10992E-2     1.1406       0.60020E-2     1.3721   
    1.8200       0.11000E-2     1.1406       0.60067E-2     1.3722   
    1.8300       0.11005E-2     1.1406       0.60113E-2     1.3723   
    1.8400       0.11015E-2     1.1406       0.60160E-2     1.3724   
    1.8500       0.11017E-2     1.1407       0.60208E-2     1.3725   
    1.8600       0.11024E-2     1.1407       0.60255E-2     1.3725   
    1.8700       0.11030E-2     1.1407       0.60303E-2     1.3726   
    1.8800       0.11039E-2     1.1407       0.60352E-2     1.3727   
    1.8900       0.11053E-2     1.1407       0.60400E-2     1.3728   
    1.9000       0.11057E-2     1.1407       0.60449E-2     1.3729   
    1.9100       0.11062E-2     1.1408       0.60498E-2     1.3730   
    1.9200       0.11068E-2     1.1408       0.60548E-2     1.3731   
    1.9300       0.11079E-2     1.1408       0.60598E-2     1.3732   
    1.9400       0.11082E-2     1.1408       0.60648E-2     1.3733   
    1.9500       0.11094E-2     1.1408       0.60698E-2     1.3734   
    1.9600       0.11100E-2     1.1409       0.60749E-2     1.3735   
    1.9700       0.11109E-2     1.1409       0.60800E-2     1.3736   
    1.9800       0.11120E-2     1.1409       0.60852E-2     1.3737   
    1.9900       0.11125E-2     1.1409       0.60903E-2     1.3738   
    2.0000       0.11131E-2     1.1409       0.60955E-2     1.3739   
    2.0100       0.11142E-2     1.1409       0.61008E-2     1.3740   
    2.0200       0.11147E-2     1.1410       0.61060E-2     1.3740   
    2.0300       0.11156E-2     1.1410       0.61113E-2     1.3741   
    2.0400       0.11162E-2     1.1410       0.61167E-2     1.3742   
    2.0500       0.11171E-2     1.1410       0.61220E-2     1.3743   
    2.0600       0.11175E-2     1.1410       0.61274E-2     1.3744   
    2.0700       0.11188E-2     1.1411       0.61328E-2     1.3745   
    2.0800       0.11196E-2     1.1411       0.61383E-2     1.3747   
    2.0900       0.11205E-2     1.1411       0.61438E-2     1.3748   
    2.1000       0.11211E-2     1.1411       0.61493E-2     1.3749   
    2.1100       0.11220E-2     1.1411       0.61549E-2     1.3750   
    2.1200       0.11222E-2     1.1412       0.61605E-2     1.3751   
    2.1300       0.11235E-2     1.1412       0.61661E-2     1.3752   
    2.1400       0.11248E-2     1.1412       0.61717E-2     1.3753   
    2.1500       0.11254E-2     1.1412       0.61774E-2     1.3754   
    2.1600       0.11257E-2     1.1412       0.61831E-2     1.3755   
    2.1700       0.11273E-2     1.1413       0.61889E-2     1.3756   
    2.1800       0.11278E-2     1.1413       0.61947E-2     1.3757   
    2.1900       0.11288E-2     1.1413       0.62005E-2     1.3758   
    2.2000       0.11292E-2     1.1413       0.62064E-2     1.3759   
    2.2100       0.11305E-2     1.1414       0.62123E-2     1.3760   
    2.2200       0.11315E-2     1.1414       0.62182E-2     1.3761   
    2.2300       0.11322E-2     1.1414       0.62241E-2     1.3762   
    2.2400       0.11329E-2     1.1414       0.62301E-2     1.3764   
    2.2500       0.11339E-2     1.1414       0.62361E-2     1.3765   
    2.2600       0.11348E-2     1.1415       0.62422E-2     1.3766   
    2.2700       0.11353E-2     1.1415       0.62483E-2     1.3767   
    2.2800       0.11369E-2     1.1415       0.62544E-2     1.3768   
    2.2900       0.11374E-2     1.1415       0.62606E-2     1.3769   
    2.3000       0.11384E-2     1.1415       0.62668E-2     1.3770   
    2.3100       0.11393E-2     1.1416       0.62730E-2     1.3771   
    2.3200       0.11402E-2     1.1416       0.62793E-2     1.3773   
    2.3300       0.11411E-2     1.1416       0.62856E-2     1.3774   
    2.3400       0.11418E-2     1.1416       0.62919E-2     1.3775   
    2.3500       0.11430E-2     1.1417       0.62983E-2     1.3776   
    2.3600       0.11435E-2     1.1417       0.63047E-2     1.3777   
    2.3700       0.11452E-2     1.1417       0.63111E-2     1.3778   
    2.3800       0.11459E-2     1.1417       0.63176E-2     1.3780   
    2.3900       0.11469E-2     1.1417       0.63241E-2     1.3781   
    2.4000       0.11475E-2     1.1418       0.63307E-2     1.3782   
    2.4100       0.11486E-2     1.1418       0.63373E-2     1.3783   
    2.4200       0.11498E-2     1.1418       0.63439E-2     1.3784   
    2.4300       0.11510E-2     1.1418       0.63506E-2     1.3786   
    2.4400       0.11516E-2     1.1419       0.63572E-2     1.3787   
    2.4500       0.11529E-2     1.1419       0.63640E-2     1.3788   
    2.4600       0.11539E-2     1.1419       0.63707E-2     1.3789   
    2.4700       0.11548E-2     1.1419       0.63775E-2     1.3791   
    2.4800       0.11555E-2     1.1420       0.63844E-2     1.3792   
    2.4900       0.11569E-2     1.1420       0.63913E-2     1.3793   
    2.5000       0.11576E-2     1.1420       0.63982E-2     1.3794   
    2.5100       0.11585E-2     1.1420       0.64051E-2     1.3796   
    2.5200       0.11598E-2     1.1421       0.64121E-2     1.3797   
    2.5300       0.11606E-2     1.1421       0.64191E-2     1.3798   
    2.5400       0.11617E-2     1.1421       0.64262E-2     1.3799   
    2.5500       0.11630E-2     1.1421       0.64333E-2     1.3801   
    2.5600       0.11637E-2     1.1422       0.64405E-2     1.3802   
    2.5700       0.11647E-2     1.1422       0.64476E-2     1.3803   
    2.5800       0.11658E-2     1.1422       0.64549E-2     1.3805   
    2.5900       0.11671E-2     1.1422       0.64621E-2     1.3806   
    2.6000       0.11680E-2     1.1423       0.64694E-2     1.3807   
    2.6100       0.11693E-2     1.1423       0.64767E-2     1.3809   
    2.6200       0.11700E-2     1.1423       0.64841E-2     1.3810   
    2.6300       0.11713E-2     1.1423       0.64915E-2     1.3811   
    2.6400       0.11724E-2     1.1424       0.64990E-2     1.3813   
    2.6500       0.11737E-2     1.1424       0.65064E-2     1.3814   
    2.6600       0.11746E-2     1.1424       0.65140E-2     1.3815   
    2.6700       0.11756E-2     1.1424       0.65215E-2     1.3817   
    2.6800       0.11771E-2     1.1425       0.65291E-2     1.3818   
    2.6900       0.11780E-2     1.1425       0.65368E-2     1.3819   
    2.7000       0.11793E-2     1.1425       0.65445E-2     1.3821   
    2.7100       0.11799E-2     1.1425       0.65522E-2     1.3822   
    2.7200       0.11815E-2     1.1426       0.65600E-2     1.3824   
    2.7300       0.11823E-2     1.1426       0.65678E-2     1.3825   
    2.7400       0.11834E-2     1.1426       0.65756E-2     1.3826   
    2.7500       0.11849E-2     1.1426       0.65835E-2     1.3828   
    2.7600       0.11860E-2     1.1427       0.65914E-2     1.3829   
    2.7700       0.11871E-2     1.1427       0.65994E-2     1.3831   
    2.7800       0.11883E-2     1.1427       0.66074E-2     1.3832   
    2.7900       0.11896E-2     1.1428       0.66155E-2     1.3833   
    2.8000       0.11907E-2     1.1428       0.66236E-2     1.3835   
    2.8100       0.11914E-2     1.1428       0.66317E-2     1.3836   
    2.8200       0.11932E-2     1.1428       0.66399E-2     1.3838   
    2.8300       0.11939E-2     1.1429       0.66481E-2     1.3839   
    2.8400       0.11958E-2     1.1429       0.66563E-2     1.3841   
    2.8500       0.11962E-2     1.1429       0.66647E-2     1.3842   
    2.8600       0.11980E-2     1.1430       0.66730E-2     1.3844   
    2.8700       0.11992E-2     1.1430       0.66814E-2     1.3845   
    2.8800       0.12003E-2     1.1430       0.66898E-2     1.3847   
    2.8900       0.12011E-2     1.1430       0.66983E-2     1.3848   
    2.9000       0.12024E-2     1.1431       0.67068E-2     1.3850   
    2.9100       0.12042E-2     1.1431       0.67154E-2     1.3851   
    2.9200       0.12054E-2     1.1431       0.67240E-2     1.3853   
    2.9300       0.12062E-2     1.1432       0.67326E-2     1.3854   
    2.9400       0.12071E-2     1.1432       0.67413E-2     1.3856   
    2.9500       0.12089E-2     1.1432       0.67500E-2     1.3857   
    2.9600       0.12097E-2     1.1432       0.67588E-2     1.3859   
    2.9700       0.12115E-2     1.1433       0.67676E-2     1.3860   
    2.9800       0.12128E-2     1.1433       0.67765E-2     1.3862   
    2.9900       0.12137E-2     1.1433       0.67854E-2     1.3864   
    3.0000       0.12150E-2     1.1434       0.67944E-2     1.3865   
    3.0100       0.12162E-2     1.1434       0.68034E-2     1.3867   
    3.0200       0.12178E-2     1.1434       0.68124E-2     1.3868   
    3.0300       0.12189E-2     1.1434       0.68215E-2     1.3870   
    3.0400       0.12210E-2     1.1435       0.68307E-2     1.3872   
    3.0500       0.12213E-2     1.1435       0.68398E-2     1.3873   
    3.0600       0.12231E-2     1.1435       0.68491E-2     1.3875   
    3.0700       0.12243E-2     1.1436       0.68584E-2     1.3876   
    3.0800       0.12258E-2     1.1436       0.68677E-2     1.3878   
    3.0900       0.12266E-2     1.1436       0.68770E-2     1.3880   
    3.1000       0.12281E-2     1.1437       0.68865E-2     1.3881   
    3.1100       0.12293E-2     1.1437       0.68959E-2     1.3883   
    3.1200       0.12305E-2     1.1437       0.69054E-2     1.3885   
    3.1300       0.12326E-2     1.1438       0.69150E-2     1.3886   
    3.1400       0.12340E-2     1.1438       0.69246E-2     1.3888   
    3.1500       0.12348E-2     1.1438       0.69343E-2     1.3890   
    3.1600       0.12369E-2     1.1439       0.69440E-2     1.3891   
    3.1700       0.12381E-2     1.1439       0.69537E-2     1.3893   
    3.1800       0.12396E-2     1.1439       0.69635E-2     1.3895   
    3.1900       0.12409E-2     1.1440       0.69734E-2     1.3897   
    3.2000       0.12419E-2     1.1440       0.69833E-2     1.3898   
    3.2100       0.12435E-2     1.1440       0.69932E-2     1.3900   
    3.2200       0.12447E-2     1.1440       0.70032E-2     1.3902   
    3.2300       0.12466E-2     1.1441       0.70132E-2     1.3903   
    3.2400       0.12476E-2     1.1441       0.70233E-2     1.3905   
    3.2500       0.12495E-2     1.1441       0.70335E-2     1.3907   
    3.2600       0.12503E-2     1.1442       0.70437E-2     1.3909   
    3.2700       0.12521E-2     1.1442       0.70539E-2     1.3910   
    3.2800       0.12537E-2     1.1442       0.70642E-2     1.3912   
    3.2900       0.12552E-2     1.1443       0.70745E-2     1.3914   
    3.3000       0.12566E-2     1.1443       0.70849E-2     1.3916   
    3.3100       0.12578E-2     1.1443       0.70954E-2     1.3918   
    3.3200       0.12597E-2     1.1444       0.71059E-2     1.3919   
    3.3300       0.12606E-2     1.1444       0.71164E-2     1.3921   
    3.3400       0.12623E-2     1.1444       0.71270E-2     1.3923   
    3.3500       0.12640E-2     1.1445       0.71377E-2     1.3925   
    3.3600       0.12654E-2     1.1445       0.71484E-2     1.3927   
    3.3700       0.12670E-2     1.1446       0.71592E-2     1.3929   
    3.3800       0.12683E-2     1.1446       0.71700E-2     1.3930   
    3.3900       0.12703E-2     1.1446       0.71808E-2     1.3932   
    3.4000       0.12716E-2     1.1447       0.71918E-2     1.3934   
    3.4100       0.12732E-2     1.1447       0.72027E-2     1.3936   
    3.4200       0.12742E-2     1.1447       0.72138E-2     1.3938   
    3.4300       0.12764E-2     1.1448       0.72248E-2     1.3940   
    3.4400       0.12780E-2     1.1448       0.72360E-2     1.3942   
    3.4500       0.12793E-2     1.1448       0.72472E-2     1.3944   
    3.4600       0.12807E-2     1.1449       0.72584E-2     1.3945   
    3.4700       0.12825E-2     1.1449       0.72697E-2     1.3947   
    3.4800       0.12838E-2     1.1449       0.72811E-2     1.3949   
    3.4900       0.12855E-2     1.1450       0.72925E-2     1.3951   
    3.5000       0.12871E-2     1.1450       0.73039E-2     1.3953   
    3.5100       0.12891E-2     1.1450       0.73155E-2     1.3955   
    3.5200       0.12907E-2     1.1451       0.73271E-2     1.3957   
    3.5300       0.12925E-2     1.1451       0.73387E-2     1.3959   
    3.5400       0.12940E-2     1.1452       0.73504E-2     1.3961   
    3.5500       0.12952E-2     1.1452       0.73621E-2     1.3963   
    3.5600       0.12967E-2     1.1452       0.73739E-2     1.3965   
    3.5700       0.12987E-2     1.1453       0.73858E-2     1.3967   
    3.5800       0.13001E-2     1.1453       0.73977E-2     1.3969   
    3.5900       0.13019E-2     1.1453       0.74097E-2     1.3971   
    3.6000       0.13041E-2     1.1454       0.74218E-2     1.3973   
    3.6100       0.13056E-2     1.1454       0.74339E-2     1.3975   
    3.6200       0.13075E-2     1.1455       0.74460E-2     1.3977   
    3.6300       0.13093E-2     1.1455       0.74582E-2     1.3979   
    3.6400       0.13106E-2     1.1455       0.74705E-2     1.3981   
    3.6500       0.13118E-2     1.1456       0.74829E-2     1.3983   
    3.6600       0.13142E-2     1.1456       0.74952E-2     1.3985   
    3.6700       0.13161E-2     1.1456       0.75077E-2     1.3987   
    3.6800       0.13174E-2     1.1457       0.75202E-2     1.3990   
    3.6900       0.13192E-2     1.1457       0.75328E-2     1.3992   
    3.7000       0.13212E-2     1.1458       0.75454E-2     1.3994   
    3.7100       0.13227E-2     1.1458       0.75582E-2     1.3996   
    3.7200       0.13246E-2     1.1458       0.75709E-2     1.3998   
    3.7300       0.13263E-2     1.1459       0.75838E-2     1.4000   
    3.7400       0.13281E-2     1.1459       0.75966E-2     1.4002   
    3.7500       0.13302E-2     1.1460       0.76096E-2     1.4004   
    3.7600       0.13316E-2     1.1460       0.76226E-2     1.4007   
    3.7700       0.13336E-2     1.1460       0.76357E-2     1.4009   
    3.7800       0.13353E-2     1.1461       0.76488E-2     1.4011   
    3.7900       0.13368E-2     1.1461       0.76621E-2     1.4013   
    3.8000       0.13392E-2     1.1462       0.76753E-2     1.4015   
    3.8100       0.13411E-2     1.1462       0.76887E-2     1.4017   
    3.8200       0.13430E-2     1.1462       0.77021E-2     1.4020   
    3.8300       0.13441E-2     1.1463       0.77156E-2     1.4022   
    3.8400       0.13467E-2     1.1463       0.77291E-2     1.4024   
    3.8500       0.13480E-2     1.1464       0.77427E-2     1.4026   
    3.8600       0.13499E-2     1.1464       0.77564E-2     1.4029   
    3.8700       0.13521E-2     1.1464       0.77701E-2     1.4031   
    3.8800       0.13540E-2     1.1465       0.77839E-2     1.4033   
    3.8900       0.13555E-2     1.1465       0.77978E-2     1.4035   
    3.9000       0.13576E-2     1.1466       0.78117E-2     1.4038   
    3.9100       0.13600E-2     1.1466       0.78257E-2     1.4040   
    3.9200       0.13614E-2     1.1467       0.78398E-2     1.4042   
    3.9300       0.13637E-2     1.1467       0.78540E-2     1.4044   
    3.9400       0.13656E-2     1.1467       0.78682E-2     1.4047   
    3.9500       0.13675E-2     1.1468       0.78825E-2     1.4049   
    3.9600       0.13693E-2     1.1468       0.78968E-2     1.4051   
    3.9700       0.13711E-2     1.1469       0.79112E-2     1.4054   
    3.9800       0.13735E-2     1.1469       0.79257E-2     1.4056   
    3.9900       0.13748E-2     1.1470       0.79403E-2     1.4059   
    4.0000       0.13775E-2     1.1470       0.79550E-2     1.4061   
    4.0100       0.13791E-2     1.1470       0.79697E-2     1.4063   
    4.0200       0.13809E-2     1.1471       0.79844E-2     1.4066   
    4.0300       0.13832E-2     1.1471       0.79993E-2     1.4068   
    4.0400       0.13853E-2     1.1472       0.80142E-2     1.4070   
    4.0500       0.13870E-2     1.1472       0.80292E-2     1.4073   
    4.0600       0.13898E-2     1.1473       0.80443E-2     1.4075   
    4.0700       0.13917E-2     1.1473       0.80595E-2     1.4078   
    4.0800       0.13935E-2     1.1473       0.80747E-2     1.4080   
    4.0900       0.13956E-2     1.1474       0.80900E-2     1.4083   
    4.1000       0.13977E-2     1.1474       0.81054E-2     1.4085   
    4.1100       0.13995E-2     1.1475       0.81208E-2     1.4088   
    4.1200       0.14021E-2     1.1475       0.81364E-2     1.4090   
    4.1300       0.14037E-2     1.1476       0.81520E-2     1.4093   
    4.1400       0.14057E-2     1.1476       0.81677E-2     1.4095   
    4.1500       0.14083E-2     1.1477       0.81834E-2     1.4098   
    4.1600       0.14101E-2     1.1477       0.81993E-2     1.4100   
    4.1700       0.14124E-2     1.1477       0.82152E-2     1.4103   
    4.1800       0.14146E-2     1.1478       0.82312E-2     1.4105   
    4.1900       0.14168E-2     1.1478       0.82473E-2     1.4108   
    4.2000       0.14191E-2     1.1479       0.82634E-2     1.4110   
    4.2100       0.14212E-2     1.1479       0.82797E-2     1.4113   
    4.2200       0.14237E-2     1.1480       0.82960E-2     1.4115   
    4.2300       0.14255E-2     1.1480       0.83124E-2     1.4118   
    4.2400       0.14276E-2     1.1481       0.83289E-2     1.4121   
    4.2500       0.14301E-2     1.1481       0.83454E-2     1.4123   
    4.2600       0.14318E-2     1.1482       0.83621E-2     1.4126   
    4.2700       0.14345E-2     1.1482       0.83788E-2     1.4128   
    4.2800       0.14369E-2     1.1483       0.83956E-2     1.4131   
    4.2900       0.14382E-2     1.1483       0.84125E-2     1.4134   
    4.3000       0.14416E-2     1.1484       0.84295E-2     1.4136   
    4.3100       0.14434E-2     1.1484       0.84466E-2     1.4139   
    4.3200       0.14458E-2     1.1485       0.84637E-2     1.4142   
    4.3300       0.14478E-2     1.1485       0.84809E-2     1.4144   
    4.3400       0.14505E-2     1.1485       0.84983E-2     1.4147   
    4.3500       0.14528E-2     1.1486       0.85157E-2     1.4150   
    4.3600       0.14550E-2     1.1486       0.85332E-2     1.4153   
    4.3700       0.14569E-2     1.1487       0.85508E-2     1.4155   
    4.3800       0.14601E-2     1.1487       0.85684E-2     1.4158   
    4.3900       0.14621E-2     1.1488       0.85862E-2     1.4161   
    4.4000       0.14646E-2     1.1488       0.86040E-2     1.4164   
    4.4100       0.14668E-2     1.1489       0.86220E-2     1.4166   
    4.4200       0.14692E-2     1.1489       0.86400E-2     1.4169   
    4.4300       0.14715E-2     1.1490       0.86581E-2     1.4172   
    4.4400       0.14737E-2     1.1490       0.86763E-2     1.4175   
    4.4500       0.14761E-2     1.1491       0.86946E-2     1.4177   
    4.4600       0.14786E-2     1.1491       0.87130E-2     1.4180   
    4.4700       0.14813E-2     1.1492       0.87315E-2     1.4183   
    4.4800       0.14839E-2     1.1492       0.87501E-2     1.4186   
    4.4900       0.14866E-2     1.1493       0.87688E-2     1.4189   
    4.5000       0.14888E-2     1.1493       0.87876E-2     1.4192   
    4.5100       0.14915E-2     1.1494       0.88064E-2     1.4195   
    4.5200       0.14941E-2     1.1494       0.88254E-2     1.4198   
    4.5300       0.14962E-2     1.1495       0.88445E-2     1.4200   
    4.5400       0.14987E-2     1.1496       0.88636E-2     1.4203   
    4.5500       0.15012E-2     1.1496       0.88829E-2     1.4206   
    4.5600       0.15040E-2     1.1497       0.89022E-2     1.4209   
    4.5700       0.15062E-2     1.1497       0.89217E-2     1.4212   
    4.5800       0.15095E-2     1.1498       0.89412E-2     1.4215   
    4.5900       0.15116E-2     1.1498       0.89609E-2     1.4218   
    4.6000       0.15140E-2     1.1499       0.89806E-2     1.4221   
    4.6100       0.15166E-2     1.1499       0.90005E-2     1.4224   
    4.6200       0.15196E-2     1.1500       0.90204E-2     1.4227   
    4.6300       0.15220E-2     1.1500       0.90405E-2     1.4230   
    4.6400       0.15243E-2     1.1501       0.90606E-2     1.4233   
    4.6500       0.15271E-2     1.1501       0.90809E-2     1.4236   
    4.6600       0.15300E-2     1.1502       0.91013E-2     1.4239   
    4.6700       0.15325E-2     1.1502       0.91217E-2     1.4242   
    4.6800       0.15354E-2     1.1503       0.91423E-2     1.4245   
    4.6900       0.15378E-2     1.1503       0.91630E-2     1.4248   
    4.7000       0.15405E-2     1.1504       0.91838E-2     1.4252   
    4.7100       0.15430E-2     1.1505       0.92047E-2     1.4255   
    4.7200       0.15457E-2     1.1505       0.92257E-2     1.4258   
    4.7300       0.15489E-2     1.1506       0.92468E-2     1.4261   
    4.7400       0.15518E-2     1.1506       0.92680E-2     1.4264   
    4.7500       0.15543E-2     1.1507       0.92893E-2     1.4267   
    4.7600       0.15571E-2     1.1507       0.93108E-2     1.4270   
    4.7700       0.15600E-2     1.1508       0.93323E-2     1.4274   
    4.7800       0.15622E-2     1.1508       0.93540E-2     1.4277   
    4.7900       0.15652E-2     1.1509       0.93758E-2     1.4280   
    4.8000       0.15682E-2     1.1510       0.93976E-2     1.4283   
    4.8100       0.15708E-2     1.1510       0.94196E-2     1.4287   
    4.8200       0.15738E-2     1.1511       0.94418E-2     1.4290   
    4.8300       0.15765E-2     1.1511       0.94640E-2     1.4293   
    4.8400       0.15792E-2     1.1512       0.94864E-2     1.4296   
    4.8500       0.15820E-2     1.1512       0.95088E-2     1.4300   
    4.8600       0.15853E-2     1.1513       0.95314E-2     1.4303   
    4.8700       0.15880E-2     1.1514       0.95541E-2     1.4306   
    4.8800       0.15911E-2     1.1514       0.95769E-2     1.4310   
    4.8900       0.15940E-2     1.1515       0.95999E-2     1.4313   
    4.9000       0.15968E-2     1.1515       0.96229E-2     1.4316   
    4.9100       0.15998E-2     1.1516       0.96461E-2     1.4320   
    4.9200       0.16030E-2     1.1516       0.96694E-2     1.4323   
    4.9300       0.16059E-2     1.1517       0.96929E-2     1.4326   
    4.9400       0.16089E-2     1.1518       0.97164E-2     1.4330   
    4.9500       0.16122E-2     1.1518       0.97401E-2     1.4333   
    4.9600       0.16149E-2     1.1519       0.97639E-2     1.4337   
    4.9700       0.16176E-2     1.1519       0.97878E-2     1.4340   
    4.9800       0.16210E-2     1.1520       0.98119E-2     1.4344   
    4.9900       0.16241E-2     1.1521       0.98361E-2     1.4347   
    5.0000       0.16270E-2     1.1521       0.98604E-2     1.4351   
    5.0100       0.16299E-2     1.1522       0.98848E-2     1.4354   
    5.0200       0.16337E-2     1.1522       0.99094E-2     1.4358   
    5.0300       0.16362E-2     1.1523       0.99341E-2     1.4361   
    5.0400       0.16396E-2     1.1524       0.99590E-2     1.4365   
    5.0500       0.16434E-2     1.1524       0.99840E-2     1.4368   
    5.0600       0.16461E-2     1.1525       0.10009E-1     1.4372   
    5.0700       0.16490E-2     1.1525       0.10034E-1     1.4375   
    5.0800       0.16523E-2     1.1526       0.10060E-1     1.4379   
    5.0900       0.16557E-2     1.1527       0.10085E-1     1.4383   
    5.1000       0.16587E-2     1.1527       0.10111E-1     1.4386   
    5.1100       0.16616E-2     1.1528       0.10137E-1     1.4390   
    5.1200       0.16648E-2     1.1529       0.10163E-1     1.4394   
    5.1300       0.16687E-2     1.1529       0.10189E-1     1.4397   
    5.1400       0.16714E-2     1.1530       0.10215E-1     1.4401   
    5.1500       0.16750E-2     1.1530       0.10241E-1     1.4405   
    5.1600       0.16784E-2     1.1531       0.10268E-1     1.4408   
    5.1700       0.16815E-2     1.1532       0.10294E-1     1.4412   
    5.1800       0.16846E-2     1.1532       0.10321E-1     1.4416   
    5.1900       0.16882E-2     1.1533       0.10348E-1     1.4420   
    5.2000       0.16923E-2     1.1534       0.10375E-1     1.4423   
    5.2100       0.16946E-2     1.1534       0.10402E-1     1.4427   
    5.2200       0.16988E-2     1.1535       0.10430E-1     1.4431   
    5.2300       0.17016E-2     1.1536       0.10457E-1     1.4435   
    5.2400       0.17056E-2     1.1536       0.10485E-1     1.4439   
    5.2500       0.17088E-2     1.1537       0.10513E-1     1.4442   
    5.2600       0.17121E-2     1.1538       0.10541E-1     1.4446   
    5.2700       0.17160E-2     1.1538       0.10569E-1     1.4450   
    5.2800       0.17192E-2     1.1539       0.10597E-1     1.4454   
    5.2900       0.17226E-2     1.1540       0.10626E-1     1.4458   
    5.3000       0.17260E-2     1.1540       0.10654E-1     1.4462   
    5.3100       0.17300E-2     1.1541       0.10683E-1     1.4466   
    5.3200       0.17332E-2     1.1542       0.10712E-1     1.4470   
    5.3300       0.17366E-2     1.1542       0.10741E-1     1.4474   
    5.3400       0.17404E-2     1.1543       0.10770E-1     1.4478   
    5.3500       0.17444E-2     1.1544       0.10800E-1     1.4482   
    5.3600       0.17479E-2     1.1544       0.10829E-1     1.4486   
    5.3700       0.17509E-2     1.1545       0.10859E-1     1.4490   
    5.3800       0.17551E-2     1.1546       0.10889E-1     1.4494   
    5.3900       0.17588E-2     1.1546       0.10919E-1     1.4498   
    5.4000       0.17622E-2     1.1547       0.10949E-1     1.4502   
    5.4100       0.17661E-2     1.1548       0.10980E-1     1.4506   
    5.4200       0.17697E-2     1.1548       0.11010E-1     1.4510   
    5.4300       0.17735E-2     1.1549       0.11041E-1     1.4515   
    5.4400       0.17772E-2     1.1550       0.11072E-1     1.4519   
    5.4500       0.17810E-2     1.1550       0.11103E-1     1.4523   
    5.4600       0.17847E-2     1.1551       0.11134E-1     1.4527   
    5.4700       0.17886E-2     1.1552       0.11166E-1     1.4531   
    5.4800       0.17924E-2     1.1553       0.11197E-1     1.4535   
    5.4900       0.17967E-2     1.1553       0.11229E-1     1.4540   
    5.5000       0.18005E-2     1.1554       0.11261E-1     1.4544   
    5.5100       0.18039E-2     1.1555       0.11294E-1     1.4548   
    5.5200       0.18083E-2     1.1555       0.11326E-1     1.4553   
    5.5300       0.18119E-2     1.1556       0.11358E-1     1.4557   
    5.5400       0.18158E-2     1.1557       0.11391E-1     1.4561   
    5.5500       0.18199E-2     1.1558       0.11424E-1     1.4566   
    5.5600       0.18239E-2     1.1558       0.11457E-1     1.4570   
    5.5700       0.18280E-2     1.1559       0.11491E-1     1.4574   
    5.5800       0.18319E-2     1.1560       0.11524E-1     1.4579   
    5.5900       0.18354E-2     1.1560       0.11558E-1     1.4583   
    5.6000       0.18398E-2     1.1561       0.11592E-1     1.4588   
    5.6100       0.18440E-2     1.1562       0.11626E-1     1.4592   
    5.6200       0.18481E-2     1.1563       0.11660E-1     1.4597   
    5.6300       0.18524E-2     1.1563       0.11695E-1     1.4601   
    5.6400       0.18563E-2     1.1564       0.11729E-1     1.4606   
    5.6500       0.18602E-2     1.1565       0.11764E-1     1.4610   
    5.6600       0.18642E-2     1.1566       0.11799E-1     1.4615   
    5.6700       0.18687E-2     1.1566       0.11835E-1     1.4619   
    5.6800       0.18729E-2     1.1567       0.11870E-1     1.4624   
    5.6900       0.18767E-2     1.1568       0.11906E-1     1.4628   
    5.7000       0.18810E-2     1.1569       0.11942E-1     1.4633   
    5.7100       0.18857E-2     1.1569       0.11978E-1     1.4638   
    5.7200       0.18898E-2     1.1570       0.12014E-1     1.4642   
    5.7300       0.18939E-2     1.1571       0.12051E-1     1.4647   
    5.7400       0.18986E-2     1.1572       0.12088E-1     1.4652   
    5.7500       0.19026E-2     1.1572       0.12125E-1     1.4656   
    5.7600       0.19073E-2     1.1573       0.12162E-1     1.4661   
    5.7700       0.19113E-2     1.1574       0.12199E-1     1.4666   
    5.7800       0.19158E-2     1.1575       0.12237E-1     1.4671   
    5.7900       0.19203E-2     1.1576       0.12275E-1     1.4676   
    5.8000       0.19248E-2     1.1576       0.12313E-1     1.4680   
    5.8100       0.19290E-2     1.1577       0.12352E-1     1.4685   
    5.8200       0.19334E-2     1.1578       0.12390E-1     1.4690   
    5.8300       0.19381E-2     1.1579       0.12429E-1     1.4695   
    5.8400       0.19425E-2     1.1579       0.12468E-1     1.4700   
    5.8500       0.19472E-2     1.1580       0.12507E-1     1.4705   
    5.8600       0.19520E-2     1.1581       0.12547E-1     1.4710   
    5.8700       0.19565E-2     1.1582       0.12587E-1     1.4715   
    5.8800       0.19612E-2     1.1583       0.12627E-1     1.4720   
    5.8900       0.19656E-2     1.1584       0.12667E-1     1.4725   
    5.9000       0.19706E-2     1.1584       0.12708E-1     1.4730   
    5.9100       0.19755E-2     1.1585       0.12748E-1     1.4735   
    5.9200       0.19798E-2     1.1586       0.12789E-1     1.4740   
    5.9300       0.19848E-2     1.1587       0.12831E-1     1.4745   
    5.9400       0.19895E-2     1.1588       0.12872E-1     1.4750   
    5.9500       0.19940E-2     1.1588       0.12914E-1     1.4755   
    5.9600       0.19989E-2     1.1589       0.12956E-1     1.4760   
    5.9700       0.20035E-2     1.1590       0.12998E-1     1.4766   
    5.9800       0.20087E-2     1.1591       0.13041E-1     1.4771   
    5.9900       0.20135E-2     1.1592       0.13084E-1     1.4776   
    6.0000       0.20186E-2     1.1593       0.13127E-1     1.4781   
    6.0100       0.20236E-2     1.1593       0.13170E-1     1.4787   
    6.0200       0.20287E-2     1.1594       0.13214E-1     1.4792   
    6.0300       0.20336E-2     1.1595       0.13258E-1     1.4797   
    6.0400       0.20384E-2     1.1596       0.13302E-1     1.4803   
    6.0500       0.20437E-2     1.1597       0.13346E-1     1.4808   
    6.0600       0.20485E-2     1.1598       0.13391E-1     1.4813   
    6.0700       0.20540E-2     1.1598       0.13436E-1     1.4819   
    6.0800       0.20587E-2     1.1599       0.13481E-1     1.4824   
    6.0900       0.20641E-2     1.1600       0.13527E-1     1.4830   
    6.1000       0.20690E-2     1.1601       0.13573E-1     1.4835   
    6.1100       0.20748E-2     1.1602       0.13619E-1     1.4841   
    6.1200       0.20796E-2     1.1603       0.13666E-1     1.4846   
    6.1300       0.20850E-2     1.1604       0.13712E-1     1.4852   
    6.1400       0.20904E-2     1.1605       0.13760E-1     1.4857   
    6.1500       0.20955E-2     1.1605       0.13807E-1     1.4863   
    6.1600       0.21010E-2     1.1606       0.13855E-1     1.4869   
    6.1700       0.21063E-2     1.1607       0.13903E-1     1.4874   
    6.1800       0.21114E-2     1.1608       0.13951E-1     1.4880   
    6.1900       0.21170E-2     1.1609       0.14000E-1     1.4886   
    6.2000       0.21225E-2     1.1610       0.14048E-1     1.4891   
    6.2100       0.21277E-2     1.1611       0.14098E-1     1.4897   
    6.2200       0.21332E-2     1.1612       0.14147E-1     1.4903   
    6.2300       0.21386E-2     1.1613       0.14197E-1     1.4909   
    6.2400       0.21437E-2     1.1614       0.14247E-1     1.4915   
    6.2500       0.21500E-2     1.1614       0.14298E-1     1.4921   
    6.2600       0.21554E-2     1.1615       0.14349E-1     1.4926   
    6.2700       0.21615E-2     1.1616       0.14400E-1     1.4932   
    6.2800       0.21668E-2     1.1617       0.14452E-1     1.4938   
    6.2900       0.21725E-2     1.1618       0.14504E-1     1.4944   
    6.3000       0.21779E-2     1.1619       0.14556E-1     1.4950   
    6.3100       0.21836E-2     1.1620       0.14608E-1     1.4956   
    6.3200       0.21896E-2     1.1621       0.14661E-1     1.4962   
    6.3300       0.21956E-2     1.1622       0.14715E-1     1.4968   
    6.3400       0.22011E-2     1.1623       0.14768E-1     1.4975   
    6.3500       0.22072E-2     1.1624       0.14822E-1     1.4981   
    6.3600       0.22131E-2     1.1625       0.14877E-1     1.4987   
    6.3700       0.22191E-2     1.1626       0.14932E-1     1.4993   
    6.3800       0.22249E-2     1.1627       0.14987E-1     1.4999   
    6.3900       0.22313E-2     1.1628       0.15042E-1     1.5006   
    6.4000       0.22372E-2     1.1629       0.15098E-1     1.5012   
    6.4100       0.22432E-2     1.1630       0.15154E-1     1.5018   
    6.4200       0.22489E-2     1.1630       0.15211E-1     1.5025   
    6.4300       0.22555E-2     1.1631       0.15268E-1     1.5031   
    6.4400       0.22614E-2     1.1632       0.15325E-1     1.5037   
    6.4500       0.22681E-2     1.1633       0.15383E-1     1.5044   
    6.4600       0.22740E-2     1.1634       0.15441E-1     1.5050   
    6.4700       0.22803E-2     1.1635       0.15500E-1     1.5057   
    6.4800       0.22866E-2     1.1636       0.15559E-1     1.5063   
    6.4900       0.22928E-2     1.1637       0.15618E-1     1.5070   
    6.5000       0.22994E-2     1.1638       0.15678E-1     1.5076   
    6.5100       0.23057E-2     1.1639       0.15739E-1     1.5083   
    6.5200       0.23118E-2     1.1640       0.15799E-1     1.5090   
    6.5300       0.23183E-2     1.1641       0.15860E-1     1.5096   
    6.5400       0.23252E-2     1.1642       0.15922E-1     1.5103   
    6.5500       0.23318E-2     1.1643       0.15984E-1     1.5110   
    6.5600       0.23384E-2     1.1644       0.16046E-1     1.5116   
    6.5700       0.23448E-2     1.1645       0.16109E-1     1.5123   
    6.5800       0.23516E-2     1.1646       0.16172E-1     1.5130   
    6.5900       0.23581E-2     1.1647       0.16236E-1     1.5137   
    6.6000       0.23648E-2     1.1648       0.16300E-1     1.5144   
    6.6100       0.23717E-2     1.1650       0.16365E-1     1.5151   
    6.6200       0.23787E-2     1.1651       0.16430E-1     1.5158   
    6.6300       0.23855E-2     1.1652       0.16496E-1     1.5165   
    6.6400       0.23923E-2     1.1653       0.16562E-1     1.5172   
    6.6500       0.23991E-2     1.1654       0.16628E-1     1.5179   
    6.6600       0.24060E-2     1.1655       0.16695E-1     1.5186   
    6.6700       0.24132E-2     1.1656       0.16763E-1     1.5193   
    6.6800       0.24204E-2     1.1657       0.16831E-1     1.5200   
    6.6900       0.24274E-2     1.1658       0.16899E-1     1.5208   
    6.7000       0.24342E-2     1.1659       0.16968E-1     1.5215   
    6.7100       0.24418E-2     1.1660       0.17038E-1     1.5222   
    6.7200       0.24486E-2     1.1661       0.17108E-1     1.5229   
    6.7300       0.24560E-2     1.1662       0.17178E-1     1.5237   
    6.7400       0.24636E-2     1.1663       0.17249E-1     1.5244   
    6.7500       0.24705E-2     1.1664       0.17321E-1     1.5252   
    6.7600       0.24780E-2     1.1666       0.17393E-1     1.5259   
    6.7700       0.24854E-2     1.1667       0.17465E-1     1.5267   
    6.7800       0.24928E-2     1.1668       0.17539E-1     1.5274   
    6.7900       0.24999E-2     1.1669       0.17612E-1     1.5282   
    6.8000       0.25080E-2     1.1670       0.17686E-1     1.5289   
    6.8100       0.25156E-2     1.1671       0.17761E-1     1.5297   
    6.8200       0.25231E-2     1.1672       0.17837E-1     1.5305   
    6.8300       0.25308E-2     1.1673       0.17913E-1     1.5312   
    6.8400       0.25385E-2     1.1674       0.17989E-1     1.5320   
    6.8500       0.25462E-2     1.1676       0.18066E-1     1.5328   
    6.8600       0.25539E-2     1.1677       0.18144E-1     1.5336   
    6.8700       0.25619E-2     1.1678       0.18222E-1     1.5344   
    6.8800       0.25698E-2     1.1679       0.18301E-1     1.5352   
    6.8900       0.25777E-2     1.1680       0.18381E-1     1.5360   
    6.9000       0.25860E-2     1.1681       0.18461E-1     1.5368   
    6.9100       0.25937E-2     1.1682       0.18541E-1     1.5376   
    6.9200       0.26015E-2     1.1684       0.18623E-1     1.5384   
    6.9300       0.26097E-2     1.1685       0.18705E-1     1.5392   
    6.9400       0.26183E-2     1.1686       0.18787E-1     1.5400   
    6.9500       0.26262E-2     1.1687       0.18871E-1     1.5408   
    6.9600       0.26347E-2     1.1688       0.18954E-1     1.5416   
    6.9700       0.26429E-2     1.1690       0.19039E-1     1.5425   
    6.9800       0.26515E-2     1.1691       0.19124E-1     1.5433   
    6.9900       0.26599E-2     1.1692       0.19210E-1     1.5441   
    7.0000       0.26684E-2     1.1693       0.19297E-1     1.5450   
    7.0100       0.26765E-2     1.1694       0.19384E-1     1.5458   
    7.0200       0.26856E-2     1.1695       0.19472E-1     1.5467   
    7.0300       0.26939E-2     1.1697       0.19561E-1     1.5475   
    7.0400       0.27028E-2     1.1698       0.19650E-1     1.5484   
    7.0500       0.27114E-2     1.1699       0.19740E-1     1.5493   
    7.0600       0.27203E-2     1.1700       0.19831E-1     1.5501   
    7.0700       0.27289E-2     1.1702       0.19922E-1     1.5510   
    7.0800       0.27378E-2     1.1703       0.20015E-1     1.5519   
    7.0900       0.27466E-2     1.1704       0.20108E-1     1.5528   
    7.1000       0.27558E-2     1.1705       0.20202E-1     1.5537   
    7.1100       0.27648E-2     1.1707       0.20296E-1     1.5546   
    7.1200       0.27742E-2     1.1708       0.20391E-1     1.5555   
    7.1300       0.27831E-2     1.1709       0.20488E-1     1.5564   
    7.1400       0.27928E-2     1.1710       0.20584E-1     1.5573   
    7.1500       0.28021E-2     1.1712       0.20682E-1     1.5582   
    7.1600       0.28111E-2     1.1713       0.20781E-1     1.5591   
    7.1700       0.28204E-2     1.1714       0.20880E-1     1.5600   
    7.1800       0.28302E-2     1.1715       0.20980E-1     1.5609   
    7.1900       0.28399E-2     1.1717       0.21081E-1     1.5619   
    7.2000       0.28492E-2     1.1718       0.21183E-1     1.5628   
    7.2100       0.28586E-2     1.1719       0.21286E-1     1.5638   
    7.2200       0.28682E-2     1.1721       0.21389E-1     1.5647   
    7.2300       0.28780E-2     1.1722       0.21494E-1     1.5657   
    7.2400       0.28881E-2     1.1723       0.21599E-1     1.5666   
    7.2500       0.28981E-2     1.1725       0.21705E-1     1.5676   
    7.2600       0.29078E-2     1.1726       0.21812E-1     1.5686   
    7.2700       0.29183E-2     1.1727       0.21921E-1     1.5695   
    7.2800       0.29281E-2     1.1729       0.22030E-1     1.5705   
    7.2900       0.29383E-2     1.1730       0.22139E-1     1.5715   
    7.3000       0.29486E-2     1.1731       0.22250E-1     1.5725   
    7.3100       0.29587E-2     1.1733       0.22362E-1     1.5735   
    7.3200       0.29692E-2     1.1734       0.22475E-1     1.5745   
    7.3300       0.29797E-2     1.1735       0.22589E-1     1.5755   
    7.3400       0.29903E-2     1.1737       0.22704E-1     1.5765   
    7.3500       0.30009E-2     1.1738       0.22819E-1     1.5775   
    7.3600       0.30113E-2     1.1739       0.22936E-1     1.5786   
    7.3700       0.30221E-2     1.1741       0.23054E-1     1.5796   
    7.3800       0.30327E-2     1.1742       0.23173E-1     1.5806   
    7.3900       0.30439E-2     1.1744       0.23293E-1     1.5817   
    7.4000       0.30544E-2     1.1745       0.23414E-1     1.5827   
    7.4100       0.30658E-2     1.1746       0.23536E-1     1.5838   
    7.4200       0.30769E-2     1.1748       0.23659E-1     1.5848   
    7.4300       0.30882E-2     1.1749       0.23784E-1     1.5859   
    7.4400       0.30993E-2     1.1751       0.23909E-1     1.5870   
    7.4500       0.31104E-2     1.1752       0.24036E-1     1.5881   
    7.4600       0.31218E-2     1.1754       0.24164E-1     1.5891   
    7.4700       0.31334E-2     1.1755       0.24293E-1     1.5902   
    7.4800       0.31447E-2     1.1757       0.24423E-1     1.5913   
    7.4900       0.31563E-2     1.1758       0.24554E-1     1.5924   
    7.5000       0.31682E-2     1.1759       0.24687E-1     1.5936   
    7.5100       0.31803E-2     1.1761       0.24820E-1     1.5947   
    7.5200       0.31920E-2     1.1762       0.24955E-1     1.5958   
    7.5300       0.32039E-2     1.1764       0.25092E-1     1.5969   
    7.5400       0.32158E-2     1.1765       0.25229E-1     1.5981   
    7.5500       0.32277E-2     1.1767       0.25368E-1     1.5992   
    7.5600       0.32398E-2     1.1768       0.25508E-1     1.6004   
    7.5700       0.32524E-2     1.1770       0.25650E-1     1.6015   
    7.5800       0.32647E-2     1.1771       0.25792E-1     1.6027   
    7.5900       0.32770E-2     1.1773       0.25937E-1     1.6039   
    7.6000       0.32896E-2     1.1774       0.26082E-1     1.6051   
    7.6100       0.33022E-2     1.1776       0.26229E-1     1.6063   
    7.6200       0.33154E-2     1.1777       0.26377E-1     1.6075   
    7.6300       0.33280E-2     1.1779       0.26527E-1     1.6087   
    7.6400       0.33405E-2     1.1781       0.26679E-1     1.6099   
    7.6500       0.33539E-2     1.1782       0.26831E-1     1.6111   
    7.6600       0.33669E-2     1.1784       0.26986E-1     1.6123   
    7.6700       0.33805E-2     1.1785       0.27141E-1     1.6136   
    7.6800       0.33934E-2     1.1787       0.27299E-1     1.6148   
    7.6900       0.34070E-2     1.1788       0.27457E-1     1.6160   
    7.7000       0.34205E-2     1.1790       0.27618E-1     1.6173   
    7.7100       0.34341E-2     1.1792       0.27780E-1     1.6186   
    7.7200       0.34474E-2     1.1793       0.27944E-1     1.6198   
    7.7300       0.34615E-2     1.1795       0.28109E-1     1.6211   
    7.7400       0.34752E-2     1.1797       0.28276E-1     1.6224   
    7.7500       0.34893E-2     1.1798       0.28444E-1     1.6237   
    7.7600       0.35034E-2     1.1800       0.28615E-1     1.6250   
    7.7700       0.35174E-2     1.1801       0.28787E-1     1.6263   
    7.7800       0.35319E-2     1.1803       0.28961E-1     1.6277   
    7.7900       0.35464E-2     1.1805       0.29136E-1     1.6290   
    7.8000       0.35608E-2     1.1806       0.29314E-1     1.6303   
    7.8100       0.35756E-2     1.1808       0.29493E-1     1.6317   
    7.8200       0.35899E-2     1.1810       0.29674E-1     1.6331   
    7.8300       0.36051E-2     1.1811       0.29857E-1     1.6344   
    7.8400       0.36198E-2     1.1813       0.30042E-1     1.6358   
    7.8500       0.36350E-2     1.1815       0.30229E-1     1.6372   
    7.8600       0.36503E-2     1.1817       0.30418E-1     1.6386   
    7.8700       0.36658E-2     1.1818       0.30609E-1     1.6400   
    7.8800       0.36811E-2     1.1820       0.30802E-1     1.6414   
    7.8900       0.36968E-2     1.1822       0.30997E-1     1.6428   
    7.9000       0.37124E-2     1.1824       0.31194E-1     1.6443   
    7.9100       0.37282E-2     1.1825       0.31393E-1     1.6457   
    7.9200       0.37440E-2     1.1827       0.31594E-1     1.6472   
    7.9300       0.37603E-2     1.1829       0.31798E-1     1.6486   
    7.9400       0.37765E-2     1.1831       0.32004E-1     1.6501   
    7.9500       0.37929E-2     1.1832       0.32212E-1     1.6516   
    7.9600       0.38095E-2     1.1834       0.32422E-1     1.6531   
    7.9700       0.38260E-2     1.1836       0.32635E-1     1.6546   
    7.9800       0.38425E-2     1.1838       0.32850E-1     1.6561   
    7.9900       0.38594E-2     1.1840       0.33067E-1     1.6576   
    8.0000       0.38766E-2     1.1841       0.33287E-1     1.6592   
    8.0100       0.38935E-2     1.1843       0.33509E-1     1.6607   
    8.0200       0.39109E-2     1.1845       0.33734E-1     1.6623   
    8.0300       0.39282E-2     1.1847       0.33961E-1     1.6639   
    8.0400       0.39463E-2     1.1849       0.34191E-1     1.6654   
    8.0500       0.39633E-2     1.1851       0.34424E-1     1.6670   
    8.0600       0.39814E-2     1.1853       0.34659E-1     1.6686   
    8.0700       0.39993E-2     1.1855       0.34897E-1     1.6703   
    8.0800       0.40175E-2     1.1856       0.35137E-1     1.6719   
    8.0900       0.40357E-2     1.1858       0.35381E-1     1.6735   
    8.1000       0.40544E-2     1.1860       0.35627E-1     1.6752   
    8.1100       0.40730E-2     1.1862       0.35876E-1     1.6768   
    8.1200       0.40917E-2     1.1864       0.36129E-1     1.6785   
    8.1300       0.41104E-2     1.1866       0.36384E-1     1.6802   
    8.1400       0.41296E-2     1.1868       0.36642E-1     1.6819   
    8.1500       0.41489E-2     1.1870       0.36903E-1     1.6836   
    8.1600       0.41683E-2     1.1872       0.37168E-1     1.6854   
    8.1700       0.41879E-2     1.1874       0.37435E-1     1.6871   
    8.1800       0.42073E-2     1.1876       0.37706E-1     1.6888   
    8.1900       0.42277E-2     1.1878       0.37980E-1     1.6906   
    8.2000       0.42478E-2     1.1880       0.38258E-1     1.6924   
    8.2100       0.42682E-2     1.1882       0.38538E-1     1.6942   
    8.2200       0.42885E-2     1.1884       0.38823E-1     1.6960   
    8.2300       0.43093E-2     1.1886       0.39111E-1     1.6978   
    8.2400       0.43300E-2     1.1888       0.39402E-1     1.6997   
    8.2500       0.43510E-2     1.1890       0.39697E-1     1.7015   
    8.2600       0.43722E-2     1.1892       0.39996E-1     1.7034   
    8.2700       0.43937E-2     1.1894       0.40299E-1     1.7053   
    8.2800       0.44149E-2     1.1897       0.40605E-1     1.7071   
    8.2900       0.44370E-2     1.1899       0.40916E-1     1.7091   
    8.3000       0.44590E-2     1.1901       0.41230E-1     1.7110   
    8.3100       0.44810E-2     1.1903       0.41548E-1     1.7129   
    8.3200       0.45037E-2     1.1905       0.41871E-1     1.7149   
    8.3300       0.45263E-2     1.1907       0.42198E-1     1.7168   
    8.3400       0.45489E-2     1.1909       0.42529E-1     1.7188   
    8.3500       0.45721E-2     1.1912       0.42864E-1     1.7208   
    8.3600       0.45954E-2     1.1914       0.43204E-1     1.7229   
    8.3700       0.46190E-2     1.1916       0.43548E-1     1.7249   
    8.3800       0.46426E-2     1.1918       0.43897E-1     1.7270   
    8.3900       0.46665E-2     1.1920       0.44251E-1     1.7290   
    8.4000       0.46908E-2     1.1923       0.44609E-1     1.7311   
    8.4100       0.47152E-2     1.1925       0.44972E-1     1.7332   
    8.4200       0.47396E-2     1.1927       0.45340E-1     1.7353   
    8.4300       0.47645E-2     1.1929       0.45714E-1     1.7375   
    8.4400       0.47896E-2     1.1932       0.46092E-1     1.7396   
    8.4500       0.48151E-2     1.1934       0.46476E-1     1.7418   
    8.4600       0.48406E-2     1.1936       0.46865E-1     1.7440   
    8.4700       0.48665E-2     1.1939       0.47259E-1     1.7462   
    8.4800       0.48926E-2     1.1941       0.47659E-1     1.7485   
    8.4900       0.49191E-2     1.1943       0.48065E-1     1.7507   
    8.5000       0.49457E-2     1.1946       0.48476E-1     1.7530   
    8.5100       0.49725E-2     1.1948       0.48893E-1     1.7553   
    8.5200       0.49996E-2     1.1951       0.49317E-1     1.7576   
    8.5300       0.50272E-2     1.1953       0.49746E-1     1.7599   
    8.5400       0.50550E-2     1.1955       0.50182E-1     1.7623   
    8.5500       0.50830E-2     1.1958       0.50624E-1     1.7647   
    8.5600       0.51113E-2     1.1960       0.51072E-1     1.7671   
    8.5700       0.51401E-2     1.1963       0.51528E-1     1.7695   
    8.5800       0.51689E-2     1.1965       0.51990E-1     1.7719   
    8.5900       0.51981E-2     1.1968       0.52458E-1     1.7744   
    8.6000       0.52275E-2     1.1970       0.52934E-1     1.7769   
    8.6100       0.52574E-2     1.1973       0.53418E-1     1.7794   
    8.6200       0.52876E-2     1.1975       0.53908E-1     1.7819   
    8.6300       0.53184E-2     1.1978       0.54406E-1     1.7845   
    8.6400       0.53491E-2     1.1981       0.54912E-1     1.7871   
    8.6500       0.53802E-2     1.1983       0.55426E-1     1.7897   
    8.6600       0.54117E-2     1.1986       0.55947E-1     1.7923   
    8.6700       0.54434E-2     1.1988       0.56477E-1     1.7950   
    8.6800       0.54757E-2     1.1991       0.57015E-1     1.7976   
    8.6900       0.55082E-2     1.1994       0.57562E-1     1.8004   
    8.7000       0.55411E-2     1.1996       0.58118E-1     1.8031   
    8.7100       0.55745E-2     1.1999       0.58682E-1     1.8059   
    8.7200       0.56082E-2     1.2002       0.59256E-1     1.8086   
    8.7300       0.56422E-2     1.2004       0.59839E-1     1.8115   
    8.7400       0.56766E-2     1.2007       0.60431E-1     1.8143   
    8.7500       0.57115E-2     1.2010       0.61034E-1     1.8172   
    8.7600       0.57467E-2     1.2013       0.61646E-1     1.8201   
    8.7700       0.57824E-2     1.2015       0.62268E-1     1.8230   
    8.7800       0.58183E-2     1.2018       0.62902E-1     1.8260   
    8.7900       0.58550E-2     1.2021       0.63545E-1     1.8290   
    8.8000       0.58919E-2     1.2024       0.64200E-1     1.8320   
    8.8100       0.59294E-2     1.2027       0.64866E-1     1.8350   
    8.8200       0.59671E-2     1.2030       0.65544E-1     1.8381   
    8.8300       0.60055E-2     1.2033       0.66233E-1     1.8412   
    8.8400       0.60441E-2     1.2035       0.66934E-1     1.8444   
    8.8500       0.60834E-2     1.2038       0.67648E-1     1.8476   
    8.8600       0.61231E-2     1.2041       0.68375E-1     1.8508   
    8.8700       0.61632E-2     1.2044       0.69114E-1     1.8540   
    8.8800       0.62039E-2     1.2047       0.69867E-1     1.8573   
    8.8900       0.62451E-2     1.2050       0.70633E-1     1.8606   
    8.9000       0.62869E-2     1.2053       0.71414E-1     1.8640   
    8.9100       0.63293E-2     1.2056       0.72209E-1     1.8674   
    8.9200       0.63719E-2     1.2060       0.73018E-1     1.8708   
    8.9300       0.64151E-2     1.2063       0.73843E-1     1.8743   
    8.9400       0.64592E-2     1.2066       0.74683E-1     1.8778   
    8.9500       0.65036E-2     1.2069       0.75539E-1     1.8813   
    8.9600       0.65488E-2     1.2072       0.76412E-1     1.8849   
    8.9700       0.65946E-2     1.2075       0.77301E-1     1.8886   
    8.9800       0.66406E-2     1.2078       0.78208E-1     1.8922   
    8.9900       0.66879E-2     1.2082       0.79132E-1     1.8960   
    9.0000       0.67353E-2     1.2085       0.80075E-1     1.8997   
    9.0100       0.67836E-2     1.2088       0.81036E-1     1.9035   
    9.0200       0.68326E-2     1.2091       0.82016E-1     1.9074   
    9.0300       0.68822E-2     1.2095       0.83016E-1     1.9113   
    9.0400       0.69320E-2     1.2098       0.84037E-1     1.9152   
    9.0500       0.69833E-2     1.2102       0.85078E-1     1.9192   
    9.0600       0.70347E-2     1.2105       0.86141E-1     1.9232   
    9.0700       0.70873E-2     1.2108       0.87225E-1     1.9273   
    9.0800       0.71405E-2     1.2112       0.88333E-1     1.9314   
    9.0900       0.71945E-2     1.2115       0.89464E-1     1.9356   
    9.1000       0.72493E-2     1.2119       0.90619E-1     1.9399   
    9.1100       0.73047E-2     1.2122       0.91799E-1     1.9442   
    9.1200       0.73612E-2     1.2126       0.93005E-1     1.9485   
    9.1300       0.74185E-2     1.2129       0.94237E-1     1.9529   
    9.1400       0.74765E-2     1.2133       0.95496E-1     1.9574   
    9.1500       0.75356E-2     1.2137       0.96783E-1     1.9619   
    9.1600       0.75955E-2     1.2140       0.98099E-1     1.9665   
    9.1700       0.76564E-2     1.2144       0.99445E-1     1.9711   
    9.1800       0.77183E-2     1.2148       0.10082        1.9758   
    9.1900       0.77810E-2     1.2152       0.10223        1.9806   
    9.2000       0.78448E-2     1.2155       0.10367        1.9854   
    9.2100       0.79095E-2     1.2159       0.10515        1.9903   
    9.2200       0.79753E-2     1.2163       0.10666        1.9952   
    9.2300       0.80423E-2     1.2167       0.10820        2.0002   
    9.2400       0.81108E-2     1.2171       0.10979        2.0053   
    9.2500       0.81798E-2     1.2175       0.11141        2.0105   
    9.2600       0.82504E-2     1.2179       0.11307        2.0157   
    9.2700       0.83221E-2     1.2183       0.11477        2.0210   
    9.2800       0.83949E-2     1.2187       0.11652        2.0264   
    9.2900       0.84690E-2     1.2191       0.11831        2.0319   
    9.3000       0.85443E-2     1.2195       0.12015        2.0374   
    9.3100       0.86213E-2     1.2199       0.12203        2.0431   
    9.3200       0.86996E-2     1.2203       0.12396        2.0488   
    9.3300       0.87791E-2     1.2208       0.12595        2.0545   
    9.3400       0.88602E-2     1.2212       0.12798        2.0604   
    9.3500       0.89428E-2     1.2216       0.13007        2.0664   
    9.3600       0.90271E-2     1.2220       0.13222        2.0724   
    9.3700       0.91128E-2     1.2225       0.13443        2.0786   
    9.3800       0.92002E-2     1.2229       0.13670        2.0848   
    9.3900       0.92894E-2     1.2234       0.13903        2.0912   
    9.4000       0.93802E-2     1.2238       0.14143        2.0976   
      9.41000       0.00947       1.22427       0.14390       2.10415
      9.42000       0.00957       1.22473       0.14644       2.11079
      9.43000       0.00966       1.22519       0.14905       2.11754
      9.44000       0.00976       1.22566       0.15175       2.12440
      9.45000       0.00986       1.22613       0.15452       2.13138
      9.46000       0.00997       1.22660       0.15738       2.13846
     9.470000      0.010072      1.227086      0.160325      2.145664
     9.480000      0.010179      1.227571      0.163363      2.152986
     9.490000      0.010289      1.228062      0.166497      2.160432
     9.500000      0.010402      1.228556      0.169731      2.168002
     9.510000      0.010516      1.229057      0.173070      2.175702
     9.520000      0.010634      1.229562      0.176518      2.183534
     9.530000      0.010754      1.230073      0.180080      2.191500
     9.540000      0.010878      1.230588      0.183763      2.199606
     9.550000      0.011004      1.231110      0.187570      2.207853
     9.559999      0.011133      1.231636      0.191509      2.216244
     9.570000      0.011266      1.232170      0.195585      2.224784
     9.580000      0.011402      1.232705      0.199805      2.233476
     9.590000      0.011541      1.233248      0.204177      2.242322
     9.599999      0.011684      1.233798      0.208708      2.251329
     9.610000      0.011831      1.234351      0.213405      2.260497
     9.620000      0.011983      1.234913      0.218277      2.269832
     9.630000      0.012138      1.235481      0.223334      2.279336
     9.639999      0.012297      1.236055      0.228585      2.289014
     9.650000      0.012461      1.236633      0.234039      2.298868
     9.660000      0.012630      1.237220      0.239710      2.308903
     9.669999      0.012804      1.237811      0.245606      2.319120
     9.679999      0.012983      1.238408      0.251741      2.329524
     9.690000      0.013168      1.239015      0.258128      2.340118
     9.700001      0.013358      1.239627      0.264782      2.350904
     9.710000      0.013555      1.240245      0.271716      2.361884
     9.720000      0.013758      1.240871      0.278946      2.373060
     9.730000      0.013967      1.241502      0.286489      2.384435
     9.740000      0.014184      1.242141      0.294363      2.396009
     9.750000      0.014407      1.242788      0.302588      2.407783
     9.760000      0.014638      1.243439      0.311182      2.419756
     9.770000      0.014878      1.244098      0.320167      2.431927
     9.780000      0.015125      1.244763      0.329566      2.444294
     9.790000      0.015381      1.245435      0.339402      2.456855
     9.800000      0.015646      1.246115      0.349701      2.469604
     9.810000      0.015921      1.246799      0.360488      2.482535
     9.820000      0.016206      1.247489      0.371791      2.495638
     9.830000      0.016500      1.248184      0.383638      2.508907
     9.840000      0.016805      1.248889      0.396058      2.522327
     9.850000      0.017121      1.249595      0.409083      2.535885
     9.860000      0.017449      1.250307      0.422743      2.549563
     9.870000      0.017787      1.251024      0.437071      2.563341
     9.880000      0.018137      1.251744      0.452097      2.577197
     9.890000      0.018498      1.252469      0.467855      2.591105
     9.900000      0.018871      1.253196      0.484377      2.605035
     9.910000      0.019256      1.253925      0.501693      2.618955
     9.920000      0.019652      1.254656      0.519836      2.632828
     9.929999      0.020059      1.255392      0.538834      2.646616
     9.940000      0.020476      1.256127      0.558716      2.660276
     9.950000      0.020905      1.256866      0.579509      2.673760
     9.960000      0.021343      1.257608      0.601240      2.687019
     9.969999      0.021792      1.258350      0.623929      2.699997
     9.980000      0.022250      1.259093      0.647600      2.712641
     9.990000      0.022718      1.259842      0.672269      2.724886
    10.000000      0.023195      1.260595      0.697951      2.736669
    10.009999      0.023683      1.261350      0.724658      2.747918
    10.020000      0.024180      1.262113      0.752395      2.758562
    10.030000      0.024690      1.262879      0.781161      2.768525
    10.040000      0.025212      1.263653      0.810953      2.777730
    10.049999      0.025746      1.264430      0.841758      2.786097
    10.060000      0.026294      1.265218      0.873562      2.793550
    10.070001      0.026858      1.266009      0.906339      2.800007
    10.080000      0.027436      1.266809      0.940064      2.805396
    10.090000      0.028033      1.267615      0.974714      2.809639
    10.100000      0.028650      1.268429      1.010263      2.812661
    10.110001      0.029288      1.269250      1.046687      2.814380
    10.120000      0.029945      1.270076      1.083964      2.814707
    10.130000      0.030629      1.270906      1.122073      2.813543
    10.140000      0.031335      1.271747      1.160985      2.810766
    10.150001      0.032073      1.272587      1.200665      2.806239
    10.160000      0.032838      1.273433      1.241053      2.799798
    10.170000      0.033637      1.274276      1.282063      2.791259
    10.180000      0.034472      1.275119      1.323564      2.780421
    10.190000      0.035346      1.275962      1.365375      2.767079
    10.200000      0.036259      1.276792      1.407253      2.751026
    10.210000      0.037215      1.277614      1.448888      2.732088
    10.220000      0.038216      1.278418      1.489908      2.710127
    10.230000      0.039262      1.279195      1.529877      2.685072
    10.240000      0.040351      1.279945      1.568310      2.656938
    10.250000      0.041487      1.280660      1.604700      2.625843
    10.260000      0.042663      1.281328      1.638533      2.592019
    10.270000      0.043877      1.281946      1.669330      2.555820
    10.280000      0.045126      1.282505      1.696670      2.517718
    10.290000      0.046399      1.282996      1.720228      2.478284
    10.300000      0.047693      1.283415      1.739801      2.438169
    10.309999      0.048994      1.283757      1.755327      2.398066
    10.320000      0.050293      1.284014      1.766892      2.358677
    10.330000      0.051575      1.284186      1.774731      2.320677
    10.340000      0.052828      1.284273      1.779212      2.284673
    10.349999      0.054036      1.284278      1.780813      2.251183
    10.360000      0.055186      1.284208      1.780101      2.220612
    10.370000      0.056260      1.284071      1.777688      2.193241
    10.379999      0.057250      1.283875      1.774218      2.169229
    10.389999      0.058143      1.283638      1.770331      2.148618
    10.400000      0.058931      1.283375      1.766645      2.131341
    10.410000      0.059610      1.283103      1.763741      2.117238
    10.419999      0.060174      1.282840      1.762152      2.106072
    10.430000      0.060629      1.282607      1.762363      2.097538
    10.440001      0.060979      1.282421      1.764798      2.091274
    10.450000      0.061230      1.282299      1.769829      2.086875
    10.460000      0.061394      1.282259      1.777770      2.083891
    10.470000      0.061484      1.282312      1.788879      2.081841
    10.480000      0.061516      1.282470      1.803355      2.080208
    10.490000      0.061506      1.282739      1.821336      2.078451
    10.500000      0.061469      1.283123      1.842893      2.076001
    10.510000      0.061422      1.283630      1.868032      2.072267
    10.520000      0.061385      1.284252      1.896681      2.066645
    10.530000      0.061370      1.284992      1.928679      2.058523
    10.540000      0.061390      1.285840      1.963782      2.047285
    10.550000      0.061460      1.286792      2.001650      2.032334
    10.560000      0.061588      1.287843      2.041841      2.013101
    10.570000      0.061782      1.288982      2.083815      1.989063
    10.580000      0.062054      1.290204      2.126930      1.959762
    10.590000      0.062410      1.291495      2.170452      1.924828
    10.600000      0.062849      1.292850      2.213566      1.884000
    10.610000      0.063378      1.294261      2.255394      1.837144
    10.620000      0.064005      1.295719      2.295018      1.784271
    10.630000      0.064723      1.297218      2.331506      1.725545
    10.639999      0.065537      1.298749      2.363945      1.661290
    10.650000      0.066448      1.300307      2.391470      1.591983
    10.660000      0.067457      1.301884      2.413295      1.518250
    10.670000      0.068563      1.303478      2.428736      1.440842
    10.679999      0.069769      1.305085      2.437242      1.360620
    10.690000      0.071068      1.306699      2.438401      1.278527
    10.700000      0.072470      1.308316      2.431959      1.195560
    10.710000      0.073971      1.309934      2.417826      1.112742
    10.719999      0.075570      1.311546      2.396072      1.031096
    10.730000      0.077275      1.313155      2.366934      0.951614
    10.740000      0.079082      1.314751      2.330793      0.875227
    10.750000      0.080994      1.316338      2.288176      0.802783
    10.759999      0.083013      1.317908      2.239723      0.735020
    10.770000      0.085140      1.319460      2.186169      0.672552
    10.780000      0.087385      1.320990      2.128318      0.615848
    10.790000      0.089744      1.322494      2.067002      0.565235
    10.800000      0.092228      1.323975      2.003081      0.520900
    10.810000      0.094837      1.325419      1.937375      0.482886
    10.820001      0.097586      1.326828      1.870669      0.451114
    10.830000      0.100481      1.328196      1.803689      0.425397
    10.840000      0.103527      1.329512      1.737073      0.405463
    10.850000      0.106742      1.330768      1.671390      0.390972
    10.860001      0.110131      1.331952      1.607111      0.381537
    10.870000      0.113711      1.333043      1.544627      0.376741
    10.880000      0.117492      1.334023      1.484244      0.376160
    10.890000      0.121485      1.334867      1.426192      0.379367
    10.900000      0.125695      1.335545      1.370637      0.385945
    10.910000      0.130130      1.336026      1.317685      0.395501
    10.920000      0.134788      1.336272      1.267391      0.407665
    10.930000      0.139665      1.336238      1.219774      0.422096
    10.940000      0.144751      1.335881      1.174815      0.438481
    10.950000      0.150024      1.335158      1.132472      0.456541
    10.960000      0.155459      1.334016      1.092685      0.476022
    10.970000      0.161015      1.332408      1.055379      0.496704
    10.980000      0.166646      1.330288      1.020469      0.518389
    10.990000      0.172290      1.327612      0.987865      0.540907
    11.000000      0.177878      1.324350      0.957473      0.564109
    11.010000      0.183325      1.320475      0.929199      0.587865
    11.020000      0.188538      1.315976      0.902951      0.612064
    11.030000      0.193420      1.310859      0.878638      0.636613
    11.040000      0.197865      1.305147      0.856175      0.661431
    11.050000      0.201774      1.298886      0.835479      0.686451
    11.059999      0.205045      1.292145      0.816474      0.711614
    11.070000      0.207596      1.285009      0.799088      0.736874
    11.080000      0.209355      1.277586      0.783256      0.762191
    11.089999      0.210273      1.269997      0.768916      0.787533
    11.099999      0.210328      1.262371      0.756014      0.812873
    11.110000      0.209522      1.254843      0.744503      0.838189
    11.120000      0.207881      1.247539      0.734338      0.863466
    11.129999      0.205458      1.240578      0.725481      0.888688
    11.139999      0.202328      1.234066      0.717901      0.913845
    11.150000      0.198577      1.228087      0.711571      0.938930
    11.160001      0.194303      1.222704      0.706469      0.963936
    11.170000      0.189611      1.217964      0.702582      0.988854
    11.180000      0.184603      1.213885      0.699897      1.013681
    11.190001      0.179376      1.210471      0.698409      1.038411
    11.200000      0.174024      1.207715      0.698118      1.063040
    11.210000      0.168627      1.205589      0.699028      1.087562
    11.220000      0.163256      1.204060      0.701151      1.111969
    11.230000      0.157972      1.203090      0.704501      1.136251
    11.240000      0.152820      1.202632      0.709098      1.160398
    11.250000      0.147843      1.202645      0.714970      1.184394
    11.260000      0.143070      1.203079      0.722146      1.208221
    11.270000      0.138520      1.203893      0.730662      1.231856
    11.280000      0.134210      1.205042      0.740560      1.255273
    11.290000      0.130149      1.206487      0.751887      1.278435
    11.300000      0.126341      1.208194      0.764693      1.301303
    11.310000      0.122789      1.210130      0.779036      1.323828
    11.320000      0.119488      1.212265      0.794974      1.345949
    11.330000      0.116436      1.214572      0.812573      1.367598
    11.340000      0.113628      1.217027      0.831899      1.388692
    11.349999      0.111057      1.219611      0.853023      1.409135
    11.360000      0.108715      1.222304      0.876015      1.428816
    11.370000      0.106594      1.225094      0.900945      1.447604
    11.380000      0.104688      1.227963      0.927881      1.465350
    11.389999      0.102991      1.230901      0.956886      1.481883
    11.400000      0.101491      1.233899      0.988012      1.497008
    11.410000      0.100184      1.236943      1.021302      1.510506
    11.420000      0.099064      1.240030      1.056780      1.522130
    11.429999      0.098122      1.243152      1.094448      1.531608
    11.440000      0.097356      1.246301      1.134278      1.538636
    11.450000      0.096760      1.249475      1.176207      1.542889
    11.460000      0.096326      1.252666      1.220128      1.544015
    11.469999      0.096053      1.255870      1.265879      1.541644
    11.480000      0.095936      1.259085      1.313236      1.535392
    11.490000      0.095971      1.262306      1.361906      1.524872
    11.500000      0.096157      1.265529      1.411514      1.509707
    11.509999      0.096490      1.268750      1.461602      1.489542
    11.520000      0.096968      1.271967      1.511629      1.464065
    11.530001      0.097587      1.275175      1.560947      1.433032
    11.540000      0.098347      1.278370      1.608849      1.396283
    11.550000      0.099244      1.281551      1.654547      1.353771
    11.560000      0.100278      1.284712      1.697206      1.305583
    11.570001      0.101445      1.287849      1.735973      1.251960
    11.580000      0.102742      1.290956      1.770004      1.193305
    11.590000      0.104165      1.294032      1.798508      1.130189
    11.600000      0.105710      1.297069      1.820790      1.063342
    11.610001      0.107371      1.300067      1.836279      0.993628
    11.620000      0.109147      1.303023      1.844577      0.922022
    11.630000      0.111028      1.305930      1.845465      0.849561
    11.640000      0.113011      1.308792      1.838921      0.777305
    11.650000      0.115088      1.311605      1.825125      0.706287
    11.660000      0.117249      1.314373      1.804421      0.637476
    11.670000      0.119486      1.317098      1.777318      0.571737
    11.680000      0.121796      1.319787      1.744448      0.509805
    11.690000      0.124171      1.322446      1.706528      0.452273
    11.700000      0.126611      1.325083      1.664329      0.399585
    11.710000      0.129111      1.327712      1.618643      0.352031
    11.720000      0.131675      1.330339      1.570250      0.309769
    11.730000      0.134304      1.332975      1.519901      0.272827
    11.740000      0.137005      1.335639      1.468293      0.241127
    11.750000      0.139791      1.338335      1.416061      0.214499
    11.760000      0.142669      1.341073      1.363765      0.192707
    11.770000      0.145660      1.343863      1.311890      0.175461
    11.780000      0.148775      1.346710      1.260848      0.162434
    11.790000      0.152039      1.349615      1.210973      0.153282
    11.799999      0.155468      1.352580      1.162533      0.147652
    11.809999      0.159087      1.355595      1.115736      0.145189
    11.820000      0.162915      1.358662      1.070735      0.145555
    11.830000      0.166978      1.361765      1.027637      0.148422
    11.839999      0.171294      1.364887      0.986505      0.153480
    11.849999      0.175885      1.368019      0.947373      0.160443
    11.860000      0.180771      1.371128      0.910249      0.169046
    11.870000      0.185966      1.374196      0.875113      0.179042
    11.879999      0.191485      1.377194      0.841933      0.190210
    11.890000      0.197340      1.380092      0.810657      0.202348
    11.900001      0.203535      1.382856      0.781231      0.215272
    11.910000      0.210075      1.385449      0.753584      0.228817
    11.920000      0.216953      1.387841      0.727644      0.242834
    11.930000      0.224166      1.389991      0.703331      0.257191
    11.940001      0.231696      1.391864      0.680562      0.271767
    11.950000      0.239528      1.393429      0.659253      0.286455
    11.960000      0.247635      1.394657      0.639315      0.301161
    11.970000      0.255991      1.395525      0.620660      0.315803
    11.980000      0.264565      1.396011      0.603196      0.330306
    11.990000      0.273325      1.396103      0.586831      0.344609
    12.000000      0.282239      1.395800      0.571471      0.358663
    12.010000      0.291277      1.395102      0.557024      0.372425
    12.020000      0.300418      1.394019      0.543396      0.385868
    12.030000      0.309647      1.392561      0.530498      0.398974
    12.040000      0.318955      1.390742      0.518241      0.411737
    12.050000      0.328345      1.388575      0.506542      0.424163
    12.060000      0.337831      1.386064      0.495327      0.436265
    12.070000      0.347429      1.383210      0.484528      0.448070
    12.080000      0.357163      1.379996      0.474088      0.459609
    12.090000      0.367054      1.376398      0.463962      0.470917
    12.099999      0.377125      1.372374      0.454116      0.482034
    12.110000      0.387384      1.367871      0.444524      0.493000
    12.120000      0.397832      1.362825      0.435175      0.503848
    12.130000      0.408457      1.357163      0.426066      0.514611
    12.139999      0.419219      1.350810      0.417197      0.525313
    12.150000      0.430063      1.343691      0.408578      0.535971
    12.160000      0.440920      1.335739      0.400215      0.546596
    12.170000      0.451699      1.326900      0.392119      0.557191
    12.179999      0.462292      1.317133      0.384297      0.567753
    12.190000      0.472585      1.306422      0.376753      0.578276
    12.200000      0.482463      1.294769      0.369487      0.588747
    12.210000      0.491805      1.282202      0.362494      0.599157
    12.219999      0.500505      1.268759      0.355765      0.609493
    12.230000      0.508466      1.254507      0.349287      0.619743
    12.240000      0.515605      1.239514      0.343044      0.629900
    12.249999      0.521856      1.223861      0.337016      0.639959
    12.260000      0.527169      1.207622      0.331182      0.649920
    12.270000      0.531492      1.190870      0.325523      0.659786
    12.280001      0.534796      1.173678      0.320020      0.669565
    12.290000      0.537040      1.156108      0.314655      0.679270
    12.300000      0.538186      1.138225      0.309416      0.688914
    12.310000      0.538187      1.120095      0.304292      0.698515
    12.320001      0.536989      1.101793      0.299280      0.708088
    12.330000      0.534545      1.083410      0.294377      0.717650
    12.340000      0.530801      1.065054      0.289586      0.727217
    12.350000      0.525716      1.046852      0.284913      0.736800
    12.360000      0.519269      1.028947      0.280365      0.746409
    12.370000      0.511462      1.011507      0.275951      0.756052
    12.380000      0.502327      0.994693      0.271679      0.765733
    12.390000      0.491929      0.978675      0.267559      0.775453
    12.400000      0.480364      0.963609      0.263599      0.785211
    12.410000      0.467762      0.949634      0.259806      0.795006
    12.420000      0.454271      0.936859      0.256184      0.804831
    12.430000      0.440059      0.925370      0.252739      0.814684
    12.440000      0.425302      0.915217      0.249472      0.824560
    12.450000      0.410176      0.906416      0.246386      0.834452
    12.460000      0.394849      0.898954      0.243479      0.844355
    12.470000      0.379478      0.892794      0.240752      0.854265
    12.480000      0.364203      0.887876      0.238203      0.864178
    12.490000      0.349148      0.884126      0.235828      0.874089
    12.500000      0.334413      0.881455      0.233626      0.883997
    12.510000      0.320081      0.879771      0.231594      0.893897
    12.520000      0.306215      0.878979      0.229727      0.903788
    12.530000      0.292862      0.878983      0.228023      0.913670
    12.540000      0.280054      0.879692      0.226479      0.923541
    12.549999      0.267810      0.881017      0.225091      0.933401
    12.559999      0.256138      0.882878      0.223855      0.943250
    12.570000      0.245039      0.885201      0.222770      0.953089
    12.580000      0.234505      0.887914      0.221832      0.962919
    12.589999      0.224523      0.890961      0.221039      0.972742
    12.599999      0.215078      0.894283      0.220390      0.982558
    12.610000      0.206149      0.897835      0.219881      0.992370
    12.620000      0.197715      0.901572      0.219512      1.002181
    12.630000      0.189756      0.905458      0.219282      1.011992
    12.640000      0.182245      0.909459      0.219190      1.021805
    12.650001      0.175163      0.913549      0.219235      1.031624
    12.660000      0.168485      0.917703      0.219417      1.041450
    12.670000      0.162189      0.921901      0.219737      1.051287
    12.680000      0.156254      0.926124      0.220195      1.061138
    12.690001      0.150660      0.930357      0.220792      1.071004
    12.700000      0.145386      0.934589      0.221529      1.080890
    12.710000      0.140416      0.938807      0.222408      1.090797
    12.720000      0.135730      0.943004      0.223432      1.100729
    12.730000      0.131313      0.947169      0.224602      1.110687
    12.740000      0.127148      0.951301      0.225921      1.120674
    12.750000      0.123223      0.955392      0.227393      1.130693
    12.760000      0.119523      0.959437      0.229019      1.140747
    12.770000      0.116036      0.963433      0.230806      1.150835
    12.780000      0.112749      0.967378      0.232755      1.160960
    12.790000      0.109654      0.971268      0.234872      1.171124
    12.800000      0.106738      0.975104      0.237161      1.181327
    12.809999      0.103994      0.978882      0.239626      1.191571
    12.820000      0.101411      0.982602      0.242272      1.201856
    12.830000      0.098984      0.986263      0.245105      1.212181
    12.840000      0.096703      0.989862      0.248128      1.222546
    12.849999      0.094562      0.993402      0.251347      1.232951
    12.860000      0.092555      0.996878      0.254767      1.243394
    12.870000      0.090675      1.000293      0.258391      1.253873
    12.880000      0.088915      1.003645      0.262223      1.264387
    12.889999      0.087273      1.006932      0.266266      1.274934
    12.900000      0.085739      1.010155      0.270523      1.285512
    12.910000      0.084312      1.013310      0.274996      1.296120
    12.920000      0.082985      1.016399      0.279687      1.306757
    12.929999      0.081752      1.019421      0.284594      1.317421
    12.940000      0.080609      1.022372      0.289719      1.328116
    12.950000      0.079549      1.025254      0.295061      1.338842
    12.960000      0.078567      1.028064      0.300618      1.349605
    12.969999      0.077657      1.030803      0.306393      1.360412
    12.980000      0.076813      1.033469      0.312385      1.371271
    12.990001      0.076028      1.036065      0.318598      1.382195
    13.000000      0.075297      1.038589      0.325037      1.393195
    13.010000      0.074611      1.041045      0.331711      1.404286
    13.020000      0.073965      1.043432      0.338633      1.415485
    13.030001      0.073351      1.045757      0.345818      1.426808
    13.040000      0.072766      1.048020      0.353287      1.438269
    13.050000      0.072203      1.050226      0.361067      1.449886
    13.060000      0.071657      1.052385      0.369185      1.461668
    13.070000      0.071125      1.054499      0.377676      1.473626
    13.080000      0.070606      1.056577      0.386577      1.485766
    13.090000      0.070097      1.058620      0.395927      1.498088
    13.100000      0.069601      1.060642      0.405767      1.510593
    13.110000      0.069116      1.062643      0.416142      1.523270
    13.120000      0.068647      1.064630      0.427097      1.536110
    13.130000      0.068198      1.066606      0.438676      1.549094
    13.140000      0.067771      1.068576      0.450926      1.562204
    13.150000      0.067371      1.070541      0.463890      1.575413
    13.160000      0.067004      1.072499      0.477617      1.588689
    13.170000      0.066672      1.074454      0.492149      1.602001
    13.180000      0.066381      1.076403      0.507530      1.615306
    13.190000      0.066132      1.078341      0.523803      1.628564
    13.200000      0.065930      1.080267      0.541009      1.641726
    13.210000      0.065773      1.082180      0.559188      1.654742
    13.220000      0.065667      1.084073      0.578380      1.667552
    13.230000      0.065609      1.085946      0.598622      1.680097
    13.240000      0.065601      1.087790      0.619953      1.692309
    13.250000      0.065641      1.089610      0.642406      1.704118
    13.259999      0.065728      1.091396      0.666014      1.715442
    13.270000      0.065862      1.093147      0.690811      1.726193
    13.280000      0.066041      1.094861      0.716822      1.736277
    13.290000      0.066264      1.096535      0.744070      1.745589
    13.299999      0.066528      1.098167      0.772573      1.754010
    13.309999      0.066833      1.099752      0.802335      1.761416
    13.320000      0.067176      1.101289      0.833351      1.767668
    13.330000      0.067555      1.102774      0.865599      1.772619
    13.339999      0.067968      1.104203      0.899040      1.776113
    13.350000      0.068409      1.105574      0.933611      1.777993
    13.360001      0.068876      1.106882      0.969223      1.778098
    13.370000      0.069363      1.108124      1.005767      1.776275
    13.380000      0.069864      1.109299      1.043105      1.772381
    13.390000      0.070372      1.110404      1.081081      1.766289
    13.400001      0.070879      1.111438      1.119519      1.757892
    13.410000      0.071378      1.112401      1.158229      1.747109
    13.420000      0.071857      1.113294      1.197018      1.733882
    13.430000      0.072313      1.114121      1.235693      1.718178
    13.440001      0.072733      1.114889      1.274067      1.699980
    13.450000      0.073110      1.115603      1.311962      1.679289
    13.460000      0.073437      1.116267      1.349211      1.656104
    13.470000      0.073709      1.116897      1.385651      1.630429
    13.480000      0.073927      1.117501      1.421119      1.602258
    13.490000      0.074083      1.118087      1.455440      1.571575
    13.500000      0.074183      1.118672      1.488415      1.538364
    13.510000      0.074228      1.119263      1.519815      1.502608
    13.520000      0.074225      1.119867      1.549372      1.464310
    13.530000      0.074178      1.120495      1.576776      1.423503
    13.540000      0.074099      1.121151      1.601681      1.380275
    13.550000      0.073993      1.121838      1.623719      1.334781
    13.559999      0.073872      1.122556      1.642516      1.287259
    13.570000      0.073740      1.123307      1.657716      1.238037
    13.580000      0.073604      1.124086      1.669005      1.187531
    13.590000      0.073470      1.124892      1.676144      1.136235
    13.599999      0.073339      1.125719      1.678979      1.084707
    13.610000      0.073215      1.126565      1.677471      1.033540
    13.620001      0.073095      1.127426      1.671695      0.983338
    13.630000      0.072980      1.128301      1.661847      0.934698
    13.640000      0.072866      1.129187      1.648228      0.888144
    13.650000      0.072753      1.130087      1.631241      0.844161
    13.660001      0.072638      1.131002      1.611357      0.803112
    13.670000      0.072522      1.131935      1.589108      0.765289
    13.680000      0.072402      1.132894      1.565042      0.730847
    13.690000      0.072282      1.133877      1.539721      0.699861
    13.700001      0.072165      1.134893      1.513674      0.672280
    13.709999      0.072055      1.135945      1.487407      0.647983
    13.720000      0.071959      1.137039      1.461355      0.626755
    13.730000      0.071886      1.138175      1.435904      0.608336
    13.740001      0.071840      1.139354      1.411349      0.592407
    13.749999      0.071834      1.140576      1.387931      0.578637
    13.760000      0.071876      1.141835      1.365795      0.566671
    13.770000      0.071977      1.143132      1.345038      0.556173
    13.780000      0.072141      1.144456      1.325672      0.546809
    13.789999      0.072377      1.145802      1.307671      0.538284
    13.800000      0.072691      1.147161      1.290952      0.530331
    13.809999      0.073089      1.148520      1.275407      0.522729
    13.820000      0.073574      1.149870      1.260897      0.515294
    13.829999      0.074148      1.151201      1.247277      0.507891
    13.840000      0.074814      1.152497      1.234389      0.500422
    13.849999      0.075566      1.153747      1.222089      0.492830
    13.860000      0.076406      1.154937      1.210237      0.485088
    13.869999      0.077326      1.156051      1.198719      0.477201
    13.880000      0.078321      1.157079      1.187433      0.469191
    13.889999      0.079379      1.158004      1.176309      0.461095
    13.900000      0.080490      1.158814      1.165297      0.452954
    13.910001      0.081636      1.159498      1.154372      0.444810
    13.920000      0.082804      1.160045      1.143538      0.436697
    13.930000      0.083968      1.160447      1.132801      0.428630
    13.940000      0.085109      1.160700      1.122191      0.420608
    13.950001      0.086198      1.160805      1.111728      0.412606
    13.960000      0.087211      1.160765      1.101437      0.404576
    13.970000      0.088122      1.160592      1.091318      0.396451
    13.980000      0.088904      1.160301      1.081352      0.388148
    13.990001      0.089536      1.159911      1.071490      0.379581
    14.000000      0.089999      1.159453      1.061650      0.370666
    14.010000      0.090279      1.158949      1.051715      0.361332
    14.020000      0.090369      1.158437      1.041545      0.351541
    14.030001      0.090270      1.157951      1.030974      0.341285
    14.040000      0.089988      1.157522      1.019831      0.330606
    14.050000      0.089535      1.157181      1.007944      0.319589
    14.059999      0.088927      1.156955      0.995162      0.308369
    14.070001      0.088193      1.156867      0.981363      0.297118
    14.080000      0.087353      1.156933      0.966475      0.286047
    14.090000      0.086438      1.157165      0.950468      0.275380
    14.099999      0.085472      1.157568      0.933376      0.265348
    14.110001      0.084484      1.158146      0.915280      0.256169
    14.120000      0.083499      1.158892      0.896319      0.248036
    14.130000      0.082538      1.159802      0.876659      0.241105
    14.139999      0.081620      1.160864      0.856507      0.235491
    14.150001      0.080763      1.162067      0.836072      0.231255
    14.159999      0.079981      1.163398      0.815579      0.228415
    14.170000      0.079286      1.164847      0.795233      0.226944
    14.179999      0.078686      1.166394      0.775232      0.226772
    14.190001      0.078186      1.168032      0.755738      0.227802
    14.199999      0.077793      1.169743      0.736897      0.229906
    14.210000      0.077507      1.171514      0.718813      0.232942
    14.219999      0.077330      1.173337      0.701567      0.236756
    14.230000      0.077263      1.175197      0.685198      0.241193
    14.239999      0.077303      1.177088      0.669725      0.246096
    14.250000      0.077446      1.178995      0.655130      0.251318
    14.259999      0.077693      1.180915      0.641377      0.256721
    14.270000      0.078039      1.182840      0.628400      0.262188
    14.280001      0.078480      1.184763      0.616120      0.267616
    14.290000      0.079011      1.186681      0.604445      0.272928
    14.300000      0.079631      1.188591      0.593267      0.278070
    14.309999      0.080333      1.190488      0.582483      0.283012
    14.320001      0.081118      1.192371      0.571983      0.287754
    14.330000      0.081985      1.194240      0.561674      0.292315
    14.340000      0.082931      1.196094      0.551467      0.296740
    14.349999      0.083958      1.197934      0.541300      0.301086
    14.360001      0.085066      1.199753      0.531123      0.305427
    14.370000      0.086260      1.201554      0.520917      0.309838
    14.380000      0.087543      1.203331      0.510676      0.314399
    14.389999      0.088918      1.205080      0.500425      0.319177
    14.400001      0.090390      1.206795      0.490198      0.324235
    14.410000      0.091962      1.208467      0.480049      0.329620
    14.420000      0.093637      1.210087      0.470035      0.335362
    14.429999      0.095415      1.211642      0.460223      0.341476
    14.440001      0.097302      1.213122      0.450678      0.347960
    14.450000      0.099289      1.214507      0.441461      0.354798
    14.460000      0.101376      1.215789      0.432629      0.361962
    14.469999      0.103554      1.216946      0.424231      0.369410
    14.480000      0.105814      1.217963      0.416306      0.377097
    14.490000      0.108139      1.218824      0.408886      0.384967
    14.500000      0.110515      1.219514      0.401988      0.392965
    14.509999      0.112917      1.220022      0.395626      0.401030
    14.520000      0.115322      1.220337      0.389798      0.409103
    14.530000      0.117699      1.220452      0.384498      0.417122
    14.540000      0.120016      1.220369      0.379705      0.425030
    14.549999      0.122240      1.220092      0.375394      0.432769
    14.560000      0.124338      1.219635      0.371529      0.440293
    14.570000      0.126278      1.219020      0.368066      0.447552
    14.580000      0.128029      1.218276      0.364953      0.454510
    14.589999      0.129568      1.217434      0.362133      0.461135
    14.600000      0.130879      1.216535      0.359540      0.467409
    14.609999      0.131953      1.215626      0.357108      0.473323
    14.620000      0.132794      1.214750      0.354766      0.478883
    14.630001      0.133411      1.213955      0.352447      0.484109
    14.640000      0.133826      1.213280      0.350086      0.489030
    14.650001      0.134067      1.212762      0.347629      0.493694
    14.660000      0.134169      1.212431      0.345028      0.498156
    14.670001      0.134172      1.212310      0.342252      0.502482
    14.679999      0.134121      1.212408      0.339284      0.506741
    14.690001      0.134054      1.212734      0.336121      0.511007
    14.700000      0.134016      1.213283      0.332779      0.515346
    14.710001      0.134048      1.214047      0.329285      0.519823
    14.719999      0.134183      1.215006      0.325679      0.524493
    14.730000      0.134456      1.216140      0.322010      0.529398
    14.740000      0.134894      1.217426      0.318335      0.534571
    14.750000      0.135520      1.218834      0.314710      0.540032
    14.759999      0.136352      1.220331      0.311196      0.545788
    14.770000      0.137407      1.221885      0.307848      0.551836
    14.780000      0.138691      1.223464      0.304721      0.558165
    14.790000      0.140210      1.225030      0.301863      0.564758
    14.799999      0.141964      1.226545      0.299319      0.571587
    14.810000      0.143949      1.227976      0.297126      0.578626
    14.820000      0.146154      1.229284      0.295317      0.585840
    14.830000      0.148563      1.230433      0.293923      0.593197
    14.839999      0.151154      1.231391      0.292966      0.600660
    14.850000      0.153901      1.232123      0.292468      0.608192
    14.860000      0.156771      1.232599      0.292445      0.615754
    14.870000      0.159722      1.232798      0.292914      0.623310
    14.879999      0.162711      1.232698      0.293885      0.630818
    14.890000      0.165686      1.232290      0.295370      0.638239
    14.900000      0.168594      1.231571      0.297375      0.645530
    14.910000      0.171379      1.230550      0.299907      0.652647
    14.919999      0.173985      1.229248      0.302969      0.659544
    14.930000      0.176360      1.227696      0.306561      0.666173
    14.940000      0.178459      1.225936      0.310679      0.672482
    14.950000      0.180243      1.224021      0.315317      0.678419
    14.959999      0.181686      1.222011      0.320463      0.683925
    14.970000      0.182772      1.219969      0.326098      0.688944
    14.980000      0.183505      1.217965      0.332198      0.693412
    14.990000      0.183893      1.216058      0.338731      0.697269
    15.000001      0.183966      1.214313      0.345656      0.700450
    15.010000      0.183758      1.212781      0.352920      0.702892
    15.020000      0.183313      1.211505      0.360464      0.704534
    15.030000      0.182682      1.210516      0.368213      0.705318
    15.040001      0.181916      1.209840      0.376086      0.705193
    15.050000      0.181070      1.209489      0.383981      0.704115
    15.060000      0.180195      1.209464      0.391796      0.702051
    15.070000      0.179340      1.209763      0.399406      0.698982
    15.080001      0.178550      1.210372      0.406690      0.694904
    15.090000      0.177865      1.211277      0.413509      0.689836
    15.100000      0.177321      1.212456      0.419730      0.683815
    15.110000      0.176949      1.213886      0.425215      0.676904
    15.120001      0.176774      1.215546      0.429838      0.669188
    15.129999      0.176819      1.217410      0.433479      0.660780
    15.140000      0.177103      1.219453      0.436040      0.651808
    15.150000      0.177644      1.221650      0.437441      0.642426
    15.160001      0.178455      1.223976      0.437630      0.632794
    15.169999      0.179549      1.226410      0.436583      0.623090
    15.180000      0.180940      1.228926      0.434307      0.613485
    15.190000      0.182640      1.231502      0.430836      0.604154
    15.200000      0.184660      1.234110      0.426236      0.595254
    15.209999      0.187012      1.236726      0.420598      0.586935
    15.220000      0.189707      1.239320      0.414031      0.579322
    15.230000      0.192757      1.241863      0.406666      0.572520
    15.240000      0.196171      1.244317      0.398642      0.566604
    15.249999      0.199956      1.246644      0.390108      0.561628
    15.260000      0.204116      1.248806      0.381206      0.557616
    15.270000      0.208651      1.250753      0.372084      0.554570
    15.280000      0.213555      1.252438      0.362872      0.552470
    15.289999      0.218817      1.253804      0.353697      0.551278
    15.300000      0.224419      1.254802      0.344664      0.550940
    15.309999      0.230328      1.255366      0.335873      0.551388
    15.320000      0.236510      1.255447      0.327399      0.552554
    15.329999      0.242910      1.254984      0.319310      0.554355
    15.340000      0.249469      1.253929      0.311655      0.556713
    15.349999      0.256109      1.252239      0.304474      0.559542
    15.360000      0.262743      1.249877      0.297790      0.562766
    15.370001      0.269274      1.246825      0.291622      0.566302
    15.380000      0.275591      1.243081      0.285976      0.570073
    15.390000      0.281588      1.238664      0.280848      0.574009
    15.400000      0.287149      1.233614      0.276229      0.578036
    15.410001      0.292166      1.227993      0.272101      0.582089
    15.420000      0.296546      1.221895      0.268442      0.586104
    15.430000      0.300207      1.215423      0.265219      0.590024
    15.440000      0.303092      1.208706      0.262396      0.593792
    15.450001      0.305171      1.201880      0.259928      0.597362
    15.460000      0.306444      1.195089      0.257766      0.600689
    15.470000      0.306939      1.188470      0.255854      0.603740
    15.480000      0.306714      1.182155      0.254131      0.606486
    15.490001      0.305848      1.176254      0.252530      0.608912
    15.500000      0.304441      1.170864      0.250983      0.611011
    15.510000      0.302605      1.166048      0.249422      0.612791
    15.520000      0.300462      1.161856      0.247780      0.614272
    15.530001      0.298131      1.158303      0.245992      0.615484
    15.540000      0.295731      1.155390      0.244007      0.616474
    15.550000      0.293371      1.153095      0.241776      0.617295
    15.559999      0.291153      1.151380      0.239270      0.618009
    15.570001      0.289163      1.150195      0.236469      0.618684
    15.579999      0.287479      1.149477      0.233371      0.619386
    15.590000      0.286165      1.149160      0.229984      0.620182
    15.599999      0.285275      1.149174      0.226334      0.621130
    15.610001      0.284850      1.149438      0.222452      0.622284
    15.619999      0.284921      1.149877      0.218384      0.623685
    15.630000      0.285514      1.150406      0.214173      0.625362
    15.639999      0.286637      1.150945      0.209872      0.627337
    15.650000      0.288298      1.151405      0.205529      0.629619
    15.659999      0.290490      1.151705      0.201192      0.632209
    15.670000      0.293196      1.151752      0.196903      0.635098
    15.679999      0.296387      1.151462      0.192704      0.638274
    15.690000      0.300023      1.150746      0.188625      0.641717
    15.699999      0.304048      1.149521      0.184697      0.645406
    15.710000      0.308395      1.147706      0.180942      0.649319
    15.719999      0.312976      1.145227      0.177378      0.653427
    15.730000      0.317690      1.142026      0.174018      0.657711
    15.740001      0.322425      1.138052      0.170874      0.662143
    15.750000      0.327046      1.133283      0.167950      0.666699
    15.760000      0.331422      1.127710      0.165251      0.671361
    15.770000      0.335407      1.121358      0.162780      0.676104
    15.780001      0.338860      1.114276      0.160534      0.680911
    15.790000      0.341647      1.106547      0.158514      0.685763
    15.800000      0.343651      1.098275      0.156715      0.690643
    15.809999      0.344773      1.089595      0.155136      0.695534
    15.820001      0.344950      1.080658      0.153770      0.700422
    15.830000      0.344143      1.071633      0.152612      0.705291
    15.840000      0.342355      1.062682      0.151658      0.710129
    15.849999      0.339622      1.053971      0.150899      0.714921
    15.860001      0.336011      1.045646      0.150328      0.719655
    15.870000      0.331617      1.037837      0.149936      0.724318
    15.880000      0.326556      1.030644      0.149714      0.728898
    15.889999      0.320958      1.024141      0.149650      0.733383
    15.900001      0.314954      1.018373      0.149731      0.737764
    15.910000      0.308681      1.013354      0.149942      0.742029
    15.920000      0.302264      1.009073      0.150268      0.746173
    15.929999      0.295821      1.005500      0.150691      0.750189
    15.940001      0.289449      1.002584      0.151192      0.754075
    15.950000      0.283234      1.000260      0.151750      0.757829
    15.960000      0.277242      0.998456      0.152346      0.761456
    15.969999      0.271523      0.997093      0.152959      0.764961
    15.980000      0.266107      0.996089      0.153571      0.768357
    15.990000      0.261012      0.995367      0.154163      0.771656
    16.000000      0.256238      0.994848      0.154722      0.774877
    16.009998      0.251770      0.994460      0.155236      0.778039
    16.020000      0.247586      0.994142      0.155698      0.781168
    16.029999      0.243652      0.993839      0.156106      0.784285
    16.040001      0.239923      0.993503      0.156462      0.787414
    16.049999      0.236352      0.993103      0.156771      0.790580
    16.059999      0.232885      0.992618      0.157045      0.793804
    16.070000      0.229469      0.992037      0.157299      0.797105
    16.080000      0.226051      0.991366      0.157551      0.800501
    16.089998      0.222581      0.990617      0.157819      0.804004
    16.100000      0.219016      0.989819      0.158128      0.807625
    16.110001      0.215320      0.989008      0.158499      0.811371
    16.119999      0.211472      0.988224      0.158958      0.815243
    16.130001      0.207456      0.987513      0.159526      0.819243
    16.139999      0.203270      0.986921      0.160228      0.823364
    16.150002      0.198925      0.986496      0.161087      0.827602
    16.160000      0.194441      0.986277      0.162122      0.831947
    16.170000      0.189844      0.986298      0.163355      0.836389
    16.180000      0.185172      0.986587      0.164804      0.840916
    16.190001      0.180456      0.987158      0.166486      0.845512
    16.199999      0.175742      0.988023      0.168419      0.850163
    16.210001      0.171062      0.989181      0.170617      0.854852
    16.219999      0.166456      0.990629      0.173096      0.859561
    16.230000      0.161954      0.992351      0.175868      0.864271
    16.240000      0.157587      0.994334      0.178948      0.868961
    16.250000      0.153375      0.996558      0.182347      0.873610
    16.260000      0.149341      0.999002      0.186076      0.878192
    16.270000      0.145497      1.001642      0.190147      0.882683
    16.279999      0.141855      1.004456      0.194568      0.887055
    16.290001      0.138422      1.007423      0.199347      0.891277
    16.299999      0.135203      1.010521      0.204490      0.895317
    16.309999      0.132197      1.013729      0.210001      0.899141
    16.320000      0.129407      1.017029      0.215879      0.902709
    16.330000      0.126828      1.020406      0.222123      0.905984
    16.340000      0.124458      1.023840      0.228724      0.908922
    16.350000      0.122293      1.027321      0.235675      0.911481
    16.359999      0.120325      1.030834      0.242955      0.913614
    16.370001      0.118551      1.034367      0.250547      0.915278
    16.379999      0.116962      1.037912      0.258419      0.916426
    16.389999      0.115553      1.041458      0.266542      0.917014
    16.400000      0.114316      1.044997      0.274874      0.916997
    16.410000      0.113243      1.048524      0.283371      0.916335
    16.420000      0.112328      1.052032      0.291980      0.914987
    16.430000      0.111565      1.055518      0.300646      0.912919
    16.439999      0.110944      1.058977      0.309301      0.910096
    16.450001      0.110460      1.062407      0.317876      0.906489
    16.460001      0.110108      1.065809      0.326291      0.902076
    16.469999      0.109882      1.069180      0.334455      0.896840
    16.480001      0.109776      1.072520      0.342273      0.890774
    16.490000      0.109790      1.075832      0.349637      0.883886
    16.500000      0.109920      1.079117      0.356436      0.876194
    16.510000      0.110164      1.082375      0.362549      0.867743
    16.520000      0.110524      1.085606      0.367861      0.858595
    16.530001      0.111002      1.088814      0.372255      0.848840
    16.540001      0.111598      1.091998      0.375631      0.838590
    16.549999      0.112317      1.095155      0.377904      0.827984
    16.560001      0.113162      1.098286      0.379014      0.817175
    16.570000      0.114137      1.101384      0.378933      0.806336
    16.580000      0.115247      1.104449      0.377665      0.795639
    16.590000      0.116496      1.107473      0.375247      0.785259
    16.600000      0.117891      1.110452      0.371748      0.775354
    16.609999      0.119434      1.113375      0.367270      0.766070
    16.620001      0.121131      1.116233      0.361932      0.757521
    16.629999      0.122982      1.119014      0.355871      0.749802
    16.639999      0.124992      1.121708      0.349230      0.742972
    16.650000      0.127161      1.124297      0.342158      0.737067
    16.660000      0.129489      1.126769      0.334795      0.732093
    16.670000      0.131971      1.129105      0.327276      0.728036
    16.680000      0.134604      1.131287      0.319719      0.724862
    16.689999      0.137379      1.133298      0.312234      0.722523
    16.700001      0.140285      1.135117      0.304910      0.720961
    16.709999      0.143307      1.136727      0.297829      0.720110
    16.719999      0.146425      1.138109      0.291050      0.719899
    16.730000      0.149616      1.139247      0.284628      0.720255
    16.740000      0.152855      1.140130      0.278599      0.721103
    16.750000      0.156109      1.140750      0.272993      0.722372
    16.760000      0.159346      1.141102      0.267826      0.723989
    16.769999      0.162531      1.141192      0.263110      0.725885
    16.780001      0.165630      1.141028      0.258842      0.727992
    16.789999      0.168612      1.140627      0.255018      0.730248
    16.799999      0.171445      1.140015      0.251621      0.732594
    16.809999      0.174110      1.139217      0.248631      0.734975
    16.820000      0.176589      1.138266      0.246021      0.737343
    16.830000      0.178873      1.137199      0.243759      0.739657
    16.840000      0.180962      1.136050      0.241807      0.741880
    16.850000      0.182862      1.134845      0.240126      0.743987
    16.860001      0.184586      1.133614      0.238675      0.745958
    16.870001      0.186152      1.132375      0.237412      0.747784
    16.879999      0.187576      1.131142      0.236298      0.749461
    16.890001      0.188877      1.129920      0.235297      0.750998
    16.900000      0.190071      1.128711      0.234379      0.752406
    16.910000      0.191167      1.127511      0.233519      0.753703
    16.920000      0.192172      1.126312      0.232702      0.754910
    16.930000      0.193087      1.125107      0.231920      0.756048
    16.940001      0.193904      1.123892      0.231173      0.757138
    16.950001      0.194614      1.122666      0.230467      0.758197
    16.959999      0.195203      1.121431      0.229815      0.759238
    16.970001      0.195656      1.120195      0.229233      0.760266
    16.980000      0.195963      1.118974      0.228739      0.761279
    16.990000      0.196107      1.117791      0.228352      0.762270
    17.000000      0.196085      1.116671      0.228088      0.763224
    17.010000      0.195895      1.115643      0.227960      0.764118
    17.019999      0.195544      1.114739      0.227976      0.764926
    17.030001      0.195043      1.113993      0.228137      0.765617
    17.039999      0.194417      1.113432      0.228438      0.766156
    17.050001      0.193690      1.113085      0.228862      0.766510
    17.059999      0.192895      1.112969      0.229388      0.766646
    17.070000      0.192069      1.113101      0.229984      0.766535
    17.080000      0.191254      1.113485      0.230610      0.766153
    17.090000      0.190487      1.114123      0.231221      0.765484
    17.099998      0.189804      1.115007      0.231767      0.764522
    17.110001      0.189242      1.116123      0.232197      0.763269
    17.119999      0.188831      1.117450      0.232459      0.761743
    17.129999      0.188599      1.118968      0.232506      0.759967
    17.139999      0.188565      1.120651      0.232296      0.757975
    17.150000      0.188745      1.122472      0.231794      0.755809
    17.160000      0.189149      1.124406      0.230978      0.753515
    17.170000      0.189784      1.126430      0.229831      0.751142
    17.179998      0.190652      1.128518      0.228350      0.748737
    17.190001      0.191755      1.130655      0.226536      0.746345
    17.200001      0.193089      1.132823      0.224399      0.744007
    17.209999      0.194654      1.135010      0.221953      0.741761
    17.220001      0.196451      1.137209      0.219214      0.739636
    17.230000      0.198480      1.139409      0.216201      0.737661
    17.240000      0.200750      1.141609      0.212931      0.735860
    17.250000      0.203269      1.143800      0.209423      0.734254
    17.260000      0.206052      1.145979      0.205697      0.732865
    17.270000      0.209116      1.148133      0.201772      0.731713
    17.280001      0.212483      1.150250      0.197671      0.730817
    17.289999      0.216177      1.152311      0.193418      0.730194
    17.300001      0.220223      1.154289      0.189040      0.729861
    17.309999      0.224645      1.156151      0.184568      0.729828
    17.320000      0.229468      1.157857      0.180032      0.730106
    17.330000      0.234710      1.159356      0.175466      0.730697
    17.340000      0.240389      1.160594      0.170903      0.731601
    17.350000      0.246510      1.161505      0.166375      0.732812
    17.360001      0.253079      1.162021      0.161912      0.734320
    17.369999      0.260081      1.162061      0.157542      0.736109
    17.380001      0.267499      1.161545      0.153288      0.738165
    17.389999      0.275295      1.160384      0.149172      0.740466
    17.400000      0.283420      1.158492      0.145209      0.742992
    17.410000      0.291804      1.155783      0.141413      0.745721
    17.420000      0.300362      1.152171      0.137793      0.748633
    17.430000      0.308987      1.147581      0.134355      0.751706
    17.440001      0.317550      1.141953      0.131102      0.754920
    17.449999      0.325908      1.135242      0.128036      0.758257
    17.460001      0.333898      1.127426      0.125155      0.761701
    17.469999      0.341346      1.118513      0.122459      0.765235
    17.480000      0.348072      1.108542      0.119943      0.768847
    17.490000      0.353894      1.097593      0.117604      0.772522
    17.500000      0.358646      1.085775      0.115435      0.776252
    17.509998      0.362171      1.073242      0.113433      0.780026
    17.520000      0.364349      1.060172      0.111592      0.783837
    17.529999      0.365094      1.046776      0.109907      0.787677
    17.539999      0.364357      1.033272      0.108372      0.791541
    17.549999      0.362141      1.019891      0.106982      0.795424
    17.559999      0.358487      1.006854      0.105733      0.799322
    17.570002      0.353484      0.994365      0.104621      0.803232
    17.580000      0.347252      0.982607      0.103641      0.807151
    17.590000      0.339939      0.971726      0.102791      0.811077
    17.600000      0.331711      0.961838      0.102066      0.815009
    17.610001      0.322745      0.953016      0.101465      0.818946
    17.619999      0.313216      0.945305      0.100985      0.822886
    17.630001      0.303290      0.938711      0.100625      0.826829
    17.639999      0.293128      0.933220      0.100383      0.830774
    17.650000      0.282867      0.928790      0.100258      0.834723
    17.660000      0.272631      0.925366      0.100252      0.838674
    17.670000      0.262521      0.922880      0.100363      0.842628
    17.680000      0.252626      0.921257      0.100592      0.846583
    17.690001      0.243008      0.920421      0.100941      0.850541
    17.699999      0.233724      0.920291      0.101412      0.854501
    17.710001      0.224806      0.920792      0.102005      0.858463
    17.719999      0.216285      0.921849      0.102724      0.862426
    17.730000      0.208172      0.923396      0.103571      0.866390
    17.740000      0.200479      0.925370      0.104550      0.870354
    17.750000      0.193202      0.927712      0.105666      0.874318
    17.760000      0.186341      0.930370      0.106922      0.878279
    17.770000      0.179884      0.933299      0.108323      0.882237
    17.779999      0.173824      0.936459      0.109874      0.886188
    17.790001      0.168144      0.939813      0.111583      0.890132
    17.799999      0.162833      0.943329      0.113454      0.894064
    17.809999      0.157874      0.946981      0.115496      0.897981
    17.820000      0.153252      0.950744      0.117716      0.901878
    17.830000      0.148953      0.954599      0.120123      0.905750
    17.840000      0.144961      0.958528      0.122725      0.909590
    17.850000      0.141262      0.962516      0.125531      0.913392
    17.859999      0.137843      0.966550      0.128552      0.917145
    17.870001      0.134690      0.970620      0.131799      0.920840
    17.879999      0.131793      0.974717      0.135281      0.924464
    17.889999      0.129139      0.978833      0.139010      0.928005
    17.900000      0.126719      0.982962      0.142998      0.931443
    17.910000      0.124523      0.987100      0.147256      0.934762
    17.919998      0.122544      0.991240      0.151794      0.937938
    17.930000      0.120772      0.995380      0.156624      0.940946
    17.940001      0.119203      0.999516      0.161753      0.943758
    17.950001      0.117829      1.003646      0.167188      0.946341
    17.960001      0.116647      1.007767      0.172935      0.948658
    17.969999      0.115651      1.011879      0.178993      0.950668
    17.980001      0.114839      1.015978      0.185359      0.952327
    17.990000      0.114208      1.020063      0.192023      0.953585
    18.000000      0.113756      1.024133      0.198970      0.954391
    18.010000      0.113481      1.028186      0.206174      0.954689
    18.020000      0.113382      1.032220      0.213601      0.954424
    18.029999      0.113461      1.036233      0.221206      0.953539
    18.040001      0.113716      1.040223      0.228935      0.951979
    18.049999      0.114150      1.044186      0.236715      0.949696
    18.059999      0.114764      1.048122      0.244468      0.946644
    18.070000      0.115560      1.052025      0.252097      0.942792
    18.080000      0.116541      1.055892      0.259498      0.938119
    18.090000      0.117712      1.059720      0.266556      0.932623
    18.100000      0.119075      1.063502      0.273149      0.926319
    18.109999      0.120633      1.067231      0.279153      0.919247
    18.120001      0.122394      1.070902      0.284447      0.911467
    18.129999      0.124361      1.074505      0.288914      0.903069
    18.139999      0.126540      1.078032      0.292456      0.894160
    18.150000      0.128937      1.081470      0.294987      0.884875
    18.160000      0.131557      1.084809      0.296450      0.875358
    18.170000      0.134405      1.088031      0.296815      0.865772
    18.180000      0.137487      1.091121      0.296083      0.856278
    18.189999      0.140807      1.094059      0.294286      0.847041
    18.200001      0.144369      1.096822      0.291484      0.838208
    18.209999      0.148172      1.099385      0.287766      0.829918
    18.219999      0.152215      1.101721      0.283239      0.822280
    18.230000      0.156493      1.103798      0.278029      0.815387
    18.240000      0.160996      1.105583      0.272267      0.809298
    18.250000      0.165709      1.107040      0.266089      0.804051
    18.260000      0.170612      1.108132      0.259624      0.799656
    18.269999      0.175676      1.108821      0.253000      0.796104
    18.280001      0.180864      1.109073      0.246326      0.793366
    18.290001      0.186131      1.108853      0.239706      0.791401
    18.299999      0.191421      1.108132      0.233226      0.790156
    18.310001      0.196674      1.106892      0.226956      0.789572
    18.320000      0.201818      1.105120      0.220959      0.789586
    18.330000      0.206778      1.102814      0.215279      0.790133
    18.340000      0.211472      1.099995      0.209954      0.791146
    18.350000      0.215821      1.096693      0.205008      0.792565
    18.360001      0.219752      1.092955      0.200460      0.794326
    18.370001      0.223194      1.088845      0.196320      0.796372
    18.379999      0.226094      1.084443      0.192594      0.798649
    18.390001      0.228413      1.079836      0.189281      0.801106
    18.400000      0.230130      1.075124      0.186378      0.803693
    18.410000      0.231246      1.070401      0.183875      0.806368
    18.420000      0.231780      1.065768      0.181762      0.809086
    18.430000      0.231770      1.061306      0.180026      0.811812
    18.439999      0.231270      1.057094      0.178651      0.814507
    18.450001      0.230341      1.053191      0.177618      0.817140
    18.459999      0.229058      1.049640      0.176908      0.819680
    18.470001      0.227491      1.046468      0.176498      0.822100
    18.480000      0.225710      1.043688      0.176366      0.824377
    18.490000      0.223782      1.041299      0.176487      0.826490
    18.500000      0.221763      1.039289      0.176838      0.828420
    18.510000      0.219703      1.037641      0.177394      0.830156
    18.519999      0.217640      1.036332      0.178132      0.831683
    18.530001      0.215605      1.035341      0.179029      0.832993
    18.539999      0.213622      1.034643      0.180066      0.834077
    18.549999      0.211709      1.034222      0.181222      0.834928
    18.559999      0.209882      1.034063      0.182481      0.835538
    18.570000      0.208152      1.034152      0.183824      0.835896
    18.580000      0.206536      1.034485      0.185234      0.835992
    18.590000      0.205047      1.035051      0.186692      0.835813
    18.599998      0.203706      1.035850      0.188173      0.835343
    18.610001      0.202532      1.036875      0.189651      0.834568
    18.619999      0.201552      1.038119      0.191092      0.833472
    18.629999      0.200791      1.039572      0.192455      0.832044
    18.639999      0.200278      1.041220      0.193695      0.830277
    18.650000      0.200044      1.043047      0.194759      0.828170
    18.660000      0.200116      1.045028      0.195590      0.825735
    18.670000      0.200524      1.047139      0.196130      0.822993
    18.680000      0.201291      1.049348      0.196322      0.819979
    18.690001      0.202447      1.051619      0.196113      0.816740
    18.700001      0.204008      1.053914      0.195459      0.813335
    18.709999      0.205996      1.056190      0.194328      0.809834
    18.720001      0.208427      1.058400      0.192699      0.806313
    18.730000      0.211310      1.060495      0.190571      0.802853
    18.740000      0.214656      1.062425      0.187957      0.799530
    18.750000      0.218465      1.064127      0.184885      0.796422
    18.760000      0.222736      1.065543      0.181397      0.793591
    18.770000      0.227463      1.066608      0.177546      0.791093
    18.780001      0.232627      1.067255      0.173391      0.788970
    18.789999      0.238204      1.067413      0.168996      0.787252
    18.800001      0.244161      1.067005      0.164426      0.785952
    18.809999      0.250448      1.065961      0.159744      0.785076
    18.820000      0.257005      1.064204      0.155006      0.784617
    18.830000      0.263758      1.061664      0.150267      0.784558
    18.840000      0.270613      1.058277      0.145570      0.784880
    18.850000      0.277464      1.053987      0.140956      0.785554
    18.860001      0.284187      1.048756      0.136455      0.786554
    18.869999      0.290642      1.042563      0.132092      0.787848
    18.880001      0.296683      1.035407      0.127886      0.789406
    18.889999      0.302151      1.027322      0.123850      0.791198
    18.900000      0.306893      1.018364      0.119993      0.793196
    18.910000      0.310759      1.008628      0.116321      0.795372
    18.920000      0.313615      0.998233      0.112834      0.797703
    18.929998      0.315347      0.987334      0.109533      0.800166
    18.940001      0.315876      0.976101      0.106414      0.802742
    18.949999      0.315154      0.964727      0.103474      0.805411
    18.959999      0.313172      0.953402      0.100706      0.808159
    18.969999      0.309962      0.942324      0.098106      0.810971
    18.980000      0.305588      0.931669      0.095666      0.813836
    18.990000      0.300151      0.921597      0.093381      0.816741
    19.000000      0.293773      0.912239      0.091242      0.819680
    19.009998      0.286594      0.903699      0.089244      0.822644
    19.020000      0.278763      0.896047      0.087380      0.825626
    19.030001      0.270429      0.889325      0.085644      0.828620
    19.039999      0.261741      0.883544      0.084030      0.831621
    19.050001      0.252832      0.878693      0.082531      0.834626
    19.059999      0.243826      0.874742      0.081143      0.837630
    19.070000      0.234829      0.871641      0.079860      0.840632
    19.080000      0.225933      0.869337      0.078677      0.843628
    19.090000      0.217212      0.867763      0.077591      0.846616
    19.100000      0.208728      0.866854      0.076597      0.849595
    19.110001      0.200523      0.866539      0.075691      0.852564
    19.119999      0.192634      0.866755      0.074870      0.855521
    19.130001      0.185082      0.867435      0.074130      0.858465
    19.139999      0.177882      0.868520      0.073468      0.861394
    19.150000      0.171040      0.869955      0.072882      0.864309
    19.160000      0.164558      0.871685      0.072369      0.867208
    19.170000      0.158431      0.873666      0.071926      0.870091
    19.180000      0.152653      0.875856      0.071552      0.872957
    19.190001      0.147211      0.878219      0.071242      0.875806
    19.199999      0.142095      0.880718      0.070996      0.878637
    19.210001      0.137288      0.883327      0.070811      0.881450
    19.219999      0.132777      0.886018      0.070684      0.884244
    19.230000      0.128544      0.888769      0.070614      0.887020
    19.240000      0.124575      0.891561      0.070599      0.889776
    19.250000      0.120851      0.894380      0.070635      0.892516
    19.260000      0.117358      0.897208      0.070720      0.895237
    19.270000      0.114078      0.900036      0.070854      0.897943
    19.279999      0.110996      0.902856      0.071033      0.900633
    19.290001      0.108097      0.905660      0.071258      0.903311
    19.299999      0.105366      0.908444      0.071525      0.905976
    19.309999      0.102791      0.911205      0.071836      0.908633
    19.320000      0.100361      0.913938      0.072190      0.911282
    19.330000      0.098065      0.916650      0.072589      0.913926
    19.339998      0.095894      0.919336      0.073032      0.916568
    19.350000      0.093841      0.921998      0.073523      0.919208
    19.359999      0.091901      0.924637      0.074063      0.921849
    19.370001      0.090069      0.927254      0.074656      0.924490
    19.379999      0.088342      0.929850      0.075304      0.927132
    19.389999      0.086716      0.932424      0.076012      0.929775
    19.400002      0.085188      0.934976      0.076782      0.932417
    19.410000      0.083759      0.937504      0.077617      0.935056
    19.420000      0.082424      0.940008      0.078522      0.937691
    19.430000      0.081182      0.942484      0.079497      0.940317
    19.440001      0.080032      0.944930      0.080548      0.942932
    19.449999      0.078968      0.947340      0.081675      0.945531
    19.460001      0.077989      0.949716      0.082882      0.948110
    19.469999      0.077090      0.952053      0.084169      0.950665
    19.480000      0.076268      0.954347      0.085537      0.953188
    19.490000      0.075518      0.956598      0.086988      0.955675
    19.500000      0.074835      0.958802      0.088521      0.958119
    19.510000      0.074214      0.960959      0.090135      0.960512
    19.520000      0.073651      0.963069      0.091827      0.962848
    19.529999      0.073140      0.965129      0.093595      0.965119
    19.540001      0.072676      0.967142      0.095432      0.967317
    19.549999      0.072256      0.969106      0.097333      0.969436
    19.559999      0.071874      0.971023      0.099289      0.971469
    19.570000      0.071527      0.972893      0.101290      0.973412
    19.580000      0.071211      0.974719      0.103325      0.975261
    19.590000      0.070921      0.976501      0.105382      0.977016
    19.600000      0.070654      0.978241      0.107448      0.978678
    19.609999      0.070406      0.979941      0.109511      0.980252
    19.620001      0.070175      0.981605      0.111560      0.981745
    19.629999      0.069956      0.983236      0.113583      0.983167
    19.639999      0.069748      0.984835      0.115575      0.984530
    19.650000      0.069549      0.986408      0.117529      0.985846
    19.660000      0.069358      0.987958      0.119444      0.987132
    19.670000      0.069173      0.989488      0.121322      0.988399
    19.680000      0.068996      0.991003      0.123166      0.989663
    19.689999      0.068829      0.992508      0.124985      0.990935
    19.700001      0.068671      0.994002      0.126787      0.992226
    19.709999      0.068526      0.995490      0.128584      0.993541
    19.719999      0.068396      0.996972      0.130388      0.994889
    19.730000      0.068283      0.998451      0.132210      0.996269
    19.740000      0.068191      0.999925      0.134065      0.997685
    19.750000      0.068122      1.001396      0.135965      0.999133
    19.760000      0.068078      1.002861      0.137921      1.000609
    19.770000      0.068061      1.004321      0.139945      1.002107
    19.780001      0.068074      1.005772      0.142047      1.003619
    19.790001      0.068118      1.007211      0.144233      1.005134
    19.799999      0.068194      1.008638      0.146509      1.006640
    19.810001      0.068304      1.010048      0.148880      1.008126
    19.820000      0.068447      1.011437      0.151343      1.009578
    19.830000      0.068624      1.012804      0.153896      1.010984
    19.840000      0.068832      1.014140      0.156533      1.012333
    19.850000      0.069070      1.015443      0.159244      1.013616
    19.859999      0.069334      1.016708      0.162018      1.014829
    19.870001      0.069620      1.017930      0.164842      1.015968
    19.879999      0.069920      1.019105      0.167704      1.017039
    19.890001      0.070229      1.020233      0.170594      1.018048
    19.900000      0.070536      1.021312      0.173502      1.019007
    19.910000      0.070835      1.022343      0.176426      1.019931
    19.920000      0.071114      1.023327      0.179367      1.020838
    19.930000      0.071366      1.024274      0.182334      1.021745
    19.939999      0.071583      1.025187      0.185341      1.022668
    19.950001      0.071760      1.026078      0.188408      1.023619
    19.959999      0.071891      1.026956      0.191561      1.024607
    19.969999      0.071976      1.027833      0.194828      1.025632
    19.980000      0.072015      1.028721      0.198240      1.026689
    19.990000      0.072013      1.029630      0.201830      1.027765
    20.000000      0.071974      1.030571      0.205626      1.028839
# 
# 11/05/2019 at 14:48 YAMBO @ dufour [start]
# 11/05/2019 at 14:50                [end]
#  
# Timing   [Min/Max/Average]: 02m-03s/02m-03s/02m-03s
#
# .-Input file : References/yambo.in_RPA_q001.in
# | optics                         # [R OPT] Optics
# | chi                            # [R CHI] Dyson equation for Chi.
# | BoseTemp= 0.000000     eV      # Bosonic Temperature
# | FFTGvecs=  6           Ry      # [FFT] Plane-waves
# | X_Threads= 1                   # [OPENMP/X] Number of threads for response functions
# | DIP_Threads= 1                 # [OPENMP/X] Number of threads for dipoles
# | Chimod= "HARTREE"              # [X] IP/Hartree/ALDA/LRC/PF/BSfxc
# | NGsBlkXd= 3            Ry      # [Xd] Response block size
# | % QpntsRXd
# |  1 | 1 |                       # [Xd] Transferred momenta
# | %
# | % BndsRnXd
# |    1 |  60 |                   # [Xd] Polarization function bands
# | %
# | % EnRngeXd
# |   0.00000 | 20.00000 | eV      # [Xd] Energy range
# | %
# | % DmRngeXd
# |  0.200000 | 0.200000 | eV      # [Xd] Damping range
# | %
# | ETStpsXd= 2001                 # [Xd] Total Energy steps
# | % LongDrXd
# |  0.000    | 0.000    |0.1000E-4 |        # [Xd] [cc] Electric Field
# | %
