#                                                           
#  **    **    **     ****     ****  ******     *******     
# //**  **    ****   /**/**   **/** /*////**   **/////**    
#  //****    **//**  /**//** ** /** /*   /**  **     //**   
#   //**    **  //** /** //***  /** /******  /**      /**   
#    /**   **********/**  //*   /** /*//// **/**      /**   
#    /**  /**//////**/**   /    /** /*    /**//**     **    
#    /**  /**     /**/**        /** /*******  //*******     
#    //   //      // //         //  ///////    ///////      
#                                                           
#             GPL Version 3.1.2 Revision 297                
#                http://www.yambo-code.org                  
#
# Polarization (-<<X>>) [volume] @ IQ 1 :0.1000E-4  0.000     0.000
#
# - The gauge is transverse + [r,Vnl] -
#
# BSK|Identifier              :7834
#    |Dimension               :199
#    |Bands                   :1 - 200
#    |Exchange           [res]: yes
#    |Correlation        [res]: no
#    |Kernel`s coupling       : no
#    |Exchange           [cpl]: no
#    |Correlation        [cpl]: no
#    |ALDA kernel in R-space  : yes
#    |RL vectors    [exchange]:9045
#    |E/h energy range    [ev]:-1.000000 - -1.000000
#    |Coupling range     [o/o]: 100.0000 -  100.0000
#
#  E/ev[1]    alpha/Im   alpha/Re   alphao/Im  alphao/Re
#
   0.00000    0.06938    7.56583    0.12822   10.44835
   0.01502    0.06958    7.57620    0.12870   10.46762
   0.03003    0.06978    7.58673    0.12918   10.48689
   0.04505    0.06997    7.59725    0.12966   10.50646
   0.06006    0.07017    7.60778    0.13014   10.52587
   0.07508    0.07038    7.61830    0.13063   10.54544
   0.09009    0.07058    7.62882    0.13112   10.56515
   0.10511    0.07078    7.63950    0.13161   10.58487
   0.12012    0.07098    7.65017    0.13211   10.60458
   0.13514    0.07119    7.66084    0.13260   10.62444
   0.15015    0.07139    7.67151    0.13310   10.64445
   0.16517    0.07160    7.68218    0.13361   10.66446
   0.18018    0.07181    7.69300    0.13411   10.68447
   0.19520    0.07202    7.70382    0.13462   10.70463
   0.21021    0.07223    7.71464    0.13514   10.72494
   0.22523    0.07244    7.72547    0.13565   10.74524
   0.24024    0.07265    7.73629    0.13617   10.76570
   0.25526    0.07286    7.74725    0.13669   10.78615
   0.27027    0.07307    7.75822    0.13722   10.80676
   0.28529    0.07329    7.76919    0.13774   10.82736
   0.30030    0.07350    7.78016    0.13827   10.84811
   0.31532    0.07372    7.79128    0.13881   10.86886
   0.33033    0.07393    7.80239    0.13934   10.88976
   0.34535    0.07415    7.81351    0.13988   10.91066
   0.36036    0.07437    7.82463    0.14043   10.93171
   0.37538    0.07459    7.83574    0.14097   10.95291
   0.39039    0.07481    7.84701    0.14152   10.97410
   0.40541    0.07503    7.85827    0.14207   10.99530
   0.42042    0.07526    7.86954    0.14263   11.01664
   0.43544    0.07548    7.88081    0.14319   11.03814
   0.45045    0.07570    7.89222    0.14375   11.05963
   0.46547    0.07593    7.90363    0.14432   11.08127
   0.48048    0.07616    7.91504    0.14489   11.10306
   0.49550    0.07639    7.92646    0.14546   11.12485
   0.51051    0.07662    7.93787    0.14603   11.14664
   0.52553    0.07685    7.94943    0.14661   11.16857
   0.54054    0.07708    7.96099    0.14720   11.19066
   0.55556    0.07731    7.97256    0.14778   11.21275
   0.57057    0.07754    7.98427    0.14837   11.23498
   0.58559    0.07778    7.99583    0.14897   11.25736
   0.60060    0.07801    8.00754    0.14956   11.27974
   0.61562    0.07825    8.01925    0.15016   11.30227
   0.63063    0.07849    8.03111    0.15077   11.32480
   0.64565    0.07873    8.04281    0.15137   11.34748
   0.66066    0.07897    8.05467    0.15199   11.37031
   0.67568    0.07921    8.06653    0.15260   11.39314
   0.69069    0.07945    8.07854    0.15322   11.41611
   0.70571    0.07969    8.09039    0.15384   11.43908
   0.72072    0.07994    8.10240    0.15447   11.46221
   0.73574    0.08018    8.11441    0.15510   11.48548
   0.75075    0.08043    8.12641    0.15573   11.50890
   0.76577    0.08068    8.13857    0.15637   11.53232
   0.78078    0.08093    8.15072    0.15701   11.55574
   0.79580    0.08118    8.16288    0.15766   11.57945
   0.81081    0.08143    8.17503    0.15831   11.60317
   0.82583    0.08168    8.18733    0.15896   11.62688
   0.84084    0.08194    8.19964    0.15962   11.65075
   0.85586    0.08219    8.21194    0.16029   11.67476
   0.87087    0.08245    8.22424    0.16095   11.69892
   0.88589    0.08270    8.23669    0.16162   11.72308
   0.90090    0.08296    8.24914    0.16230   11.74739
   0.91592    0.08322    8.26159    0.16298   11.77185
   0.93093    0.08349    8.27404    0.16366   11.79631
   0.94595    0.08375    8.28664    0.16435   11.82106
   0.96096    0.08401    8.29924    0.16504   11.84566
   0.97598    0.08428    8.31184    0.16574   11.87057
   0.99099    0.08454    8.32459    0.16644   11.89547
   1.00601    0.08481    8.33719    0.16714   11.92052
   1.02102    0.08508    8.34994    0.16785   11.94557
   1.03604    0.08535    8.36283    0.16857   11.97091
   1.05105    0.08562    8.37558    0.16929   11.99626
   1.06607    0.08590    8.38847    0.17001   12.02176
   1.08108    0.08617    8.40137    0.17074   12.04725
   1.09610    0.08645    8.41441    0.17147   12.07289
   1.11111    0.08672    8.42731    0.17221   12.09868
   1.12613    0.08700    8.44035    0.17295   12.12462
   1.14114    0.08728    8.45354    0.17370   12.15071
   1.15616    0.08756    8.46659    0.17445   12.17680
   1.17117    0.08785    8.47978    0.17521   12.20303
   1.18619    0.08813    8.49297    0.17597   12.22942
   1.20120    0.08842    8.50631    0.17674   12.25580
   1.21622    0.08870    8.51950    0.17751   12.28248
   1.23123    0.08899    8.53284    0.17829   12.30916
   1.24625    0.08928    8.54619    0.17907   12.33599
   1.26126    0.08957    8.55967    0.17986   12.36282
   1.27628    0.08987    8.57316    0.18065   12.38995
   1.29129    0.09016    8.58665    0.18145   12.41707
   1.30631    0.09046    8.60029    0.18225   12.44434
   1.32132    0.09076    8.61378    0.18306   12.47176
   1.33634    0.09105    8.62741    0.18388   12.49933
   1.35135    0.09135    8.64120    0.18470   12.52705
   1.36637    0.09166    8.65483    0.18552   12.55477
   1.38138    0.09196    8.66862    0.18635   12.58264
   1.39640    0.09226    8.68255    0.18719   12.61065
   1.41141    0.09257    8.69634    0.18803   12.63881
   1.42643    0.09288    8.71027    0.18888   12.66712
   1.44144    0.09319    8.72420    0.18973   12.69558
   1.45646    0.09350    8.73828    0.19059   12.72404
   1.47147    0.09381    8.75237    0.19146   12.75280
   1.48649    0.09413    8.76645    0.19233   12.78155
   1.50150    0.09444    8.78053    0.19320   12.81046
   1.51652    0.09476    8.79476    0.19409   12.83951
   1.53153    0.09508    8.80899    0.19498   12.86871
   1.54655    0.09540    8.82337    0.19587   12.89806
   1.56156    0.09573    8.83774    0.19677   12.92756
   1.57658    0.09605    8.85212    0.19768   12.95720
   1.59159    0.09638    8.86650    0.19860   12.98685
   1.60661    0.09670    8.88102    0.19952   13.01679
   1.62162    0.09703    8.89555    0.20044   13.04673
   1.63664    0.09737    8.91008    0.20138   13.07697
   1.65165    0.09770    8.92475    0.20232   13.10720
   1.66667    0.09803    8.93942    0.20326   13.13774
   1.68168    0.09837    8.95425    0.20422   13.16827
   1.69670    0.09871    8.96907    0.20518   13.19895
   1.71171    0.09905    8.98389    0.20614   13.22979
   1.72673    0.09939    8.99871    0.20712   13.26091
   1.74174    0.09974    9.01369    0.20810   13.29204
   1.75676    0.10008    9.02866    0.20909   13.32332
   1.77177    0.10043    9.04377    0.21008   13.35474
   1.78679    0.10078    9.05889    0.21108   13.38631
   1.80180    0.10113    9.07401    0.21209   13.41818
   1.81682    0.10148    9.08913    0.21311   13.45005
   1.83183    0.10184    9.10440    0.21413   13.48206
   1.84685    0.10220    9.11981    0.21517   13.51423
   1.86186    0.10256    9.13508    0.21620   13.54669
   1.87688    0.10292    9.15050    0.21725   13.57915
   1.89189    0.10328    9.16606    0.21831   13.61191
   1.90691    0.10364    9.18162    0.21937   13.64467
   1.92192    0.10401    9.19719    0.22044   13.67772
   1.93694    0.10438    9.21275    0.22151   13.71092
   1.95195    0.10475    9.22846    0.22260   13.74412
   1.96697    0.10513    9.24417    0.22369   13.77762
   1.98198    0.10550    9.26003    0.22479   13.81127
   1.99700    0.10588    9.27590    0.22590   13.84521
   2.01201    0.10626    9.29190    0.22702   13.87916
   2.02703    0.10664    9.30776    0.22815   13.91325
   2.04204    0.10702    9.32392    0.22928   13.94764
   2.05706    0.10741    9.33993    0.23043   13.98217
   2.07207    0.10780    9.35608    0.23158   14.01671
   2.08709    0.10819    9.37224    0.23274   14.05154
   2.10210    0.10858    9.38855    0.23391   14.08667
   2.11712    0.10897    9.40485    0.23509   14.12180
   2.13213    0.10937    9.42130    0.23627   14.15723
   2.14715    0.10977    9.43776    0.23747   14.19280
   2.16216    0.11017    9.45421    0.23868   14.22852
   2.17718    0.11057    9.47081    0.23989   14.26439
   2.19219    0.11098    9.48741    0.24111   14.30041
   2.20721    0.11139    9.50416    0.24235   14.33673
   2.22222    0.11180    9.52091    0.24359   14.37319
   2.23724    0.11221    9.53766    0.24484   14.40980
   2.25225    0.11262    9.55456    0.24611   14.44671
   2.26727    0.11304    9.57145    0.24738   14.48377
   2.28228    0.11346    9.58850    0.24866   14.52097
   2.29730    0.11388    9.60555    0.24995   14.55832
   2.31231    0.11431    9.62274    0.25126   14.59597
   2.32733    0.11474    9.63993    0.25257   14.63377
   2.34234    0.11517    9.65713    0.25389   14.67171
   2.35736    0.11560    9.67447    0.25522   14.70996
   2.37237    0.11603    9.69181    0.25657   14.74835
   2.38739    0.11647    9.70930    0.25792   14.78689
   2.40240    0.11691    9.72679    0.25929   14.82572
   2.41742    0.11735    9.74443    0.26066   14.86470
   2.43243    0.11780    9.76207    0.26205   14.90398
   2.44745    0.11825    9.77971    0.26345   14.94341
   2.46246    0.11870    9.79750    0.26486   14.98299
   2.47748    0.11915    9.81543    0.26628   15.02286
   2.49249    0.11960    9.83337    0.26771   15.06288
   2.50751    0.12006    9.85130    0.26916   15.10320
   2.52252    0.12052    9.86939    0.27061   15.14366
   2.53754    0.12099    9.88747    0.27208   15.18442
   2.55255    0.12145    9.90570    0.27356   15.22533
   2.56757    0.12192    9.92393    0.27505   15.26654
   2.58258    0.12240    9.94231    0.27656   15.30789
   2.59760    0.12287    9.96069    0.27808   15.34955
   2.61261    0.12335    9.97922    0.27961   15.39135
   2.62763    0.12383    9.99775    0.28115   15.43344
   2.64264    0.12431   10.01628    0.28270   15.47568
   2.65766    0.12480   10.03495    0.28427   15.51822
   2.67267    0.12529   10.05378    0.28585   15.56106
   2.68769    0.12578   10.07260    0.28745   15.60405
   2.70270    0.12628   10.09157    0.28905   15.64733
   2.71772    0.12678   10.11055    0.29068   15.69076
   2.73273    0.12728   10.12967    0.29231   15.73448
   2.74775    0.12778   10.14879    0.29396   15.77851
   2.76276    0.12829   10.16791    0.29562   15.82283
   2.77778    0.12880   10.18733    0.29730   15.86729
   2.79279    0.12932   10.20660    0.29899   15.91191
   2.80781    0.12983   10.22601    0.30070   15.95697
   2.82282    0.13035   10.24558    0.30242   16.00218
   2.83784    0.13088   10.26515    0.30416   16.04768
   2.85285    0.13140   10.28486    0.30591   16.09348
   2.86787    0.13193   10.30472    0.30767   16.13958
   2.88288    0.13247   10.32444    0.30945   16.18583
   2.89790    0.13301   10.34445    0.31125   16.23237
   2.91291    0.13355   10.36446    0.31306   16.27921
   2.92793    0.13409   10.38447    0.31489   16.32635
   2.94294    0.13464   10.40462    0.31674   16.37363
   2.95796    0.13519   10.42493    0.31860   16.42136
   2.97297    0.13574   10.44524    0.32048   16.46923
   2.98799    0.13630   10.46569    0.32237   16.51756
   3.00300    0.13686   10.48615    0.32428   16.56602
   3.01802    0.13743   10.50675    0.32621   16.61479
   3.03303    0.13800   10.52736    0.32816   16.66385
   3.04805    0.13857   10.54811    0.33012   16.71336
   3.06306    0.13914   10.56901    0.33210   16.76302
   3.07808    0.13972   10.58991    0.33410   16.81297
   3.09309    0.14031   10.61095    0.33612   16.86321
   3.10811    0.14090   10.63200    0.33816   16.91376
   3.12312    0.14149   10.65320    0.34021   16.96475
   3.13814    0.14208   10.67454    0.34228   17.01589
   3.15315    0.14268   10.69589    0.34438   17.06747
   3.16817    0.14328   10.71738    0.34649   17.11920
   3.18318    0.14389   10.73887    0.34862   17.17137
   3.19820    0.14450   10.76051    0.35077   17.22384
   3.21321    0.14512   10.78230    0.35294   17.27661
   3.22823    0.14574   10.80409    0.35513   17.32968
   3.24324    0.14636   10.82603    0.35735   17.38319
   3.25826    0.14699   10.84811    0.35958   17.43699
   3.27327    0.14762   10.87020    0.36183   17.49109
   3.28829    0.14825   10.89243    0.36411   17.54549
   3.30330    0.14889   10.91467    0.36640   17.60034
   3.31832    0.14954   10.93705    0.36872   17.65548
   3.33333    0.15019   10.95958    0.37107   17.71091
   3.34835    0.15084   10.98211    0.37343   17.76679
   3.36336    0.15150   11.00479    0.37581   17.82297
   3.37838    0.15216   11.02761    0.37822   17.87959
   3.39339    0.15283   11.05044    0.38066   17.93651
   3.40841    0.15350   11.07356    0.38311   17.99372
   3.42342    0.15417   11.09654    0.38559   18.05138
   3.43844    0.15485   11.11981    0.38810   18.10949
   3.45345    0.15554   11.14308    0.39063   18.16789
   3.46847    0.15623   11.16650    0.39318   18.22659
   3.48348    0.15692   11.18992    0.39576   18.28573
   3.49850    0.15762   11.21349    0.39837   18.34531
   3.51351    0.15833   11.23720    0.40100   18.40534
   3.52853    0.15904   11.26107    0.40365   18.46567
   3.54354    0.15975   11.28493    0.40634   18.52644
   3.55856    0.16047   11.30909    0.40905   18.58751
   3.57357    0.16119   11.33310    0.41179   18.64917
   3.58859    0.16192   11.35741    0.41455   18.71113
   3.60360    0.16266   11.38172    0.41735   18.77353
   3.61862    0.16340   11.40618    0.42017   18.83638
   3.63363    0.16414   11.43078    0.42302   18.89952
   3.64865    0.16489   11.45554    0.42590   18.96326
   3.66366    0.16565   11.48029    0.42881   19.02729
   3.67868    0.16641   11.50519    0.43175   19.09192
   3.69369    0.16717   11.53024    0.43472   19.15684
   3.70871    0.16795   11.55544    0.43772   19.22221
   3.72372    0.16872   11.58064    0.44076   19.28817
   3.73874    0.16951   11.60599    0.44382   19.35443
   3.75375    0.17030   11.63148    0.44692   19.42127
   3.76877    0.17109   11.65712    0.45005   19.48857
   3.78378    0.17189   11.68291    0.45321   19.55631
   3.79880    0.17270   11.70870    0.45641   19.62449
   3.81381    0.17351   11.73479    0.45964   19.69327
   3.82883    0.17433   11.76088    0.46290   19.76234
   3.84384    0.17515   11.78712    0.46620   19.83200
   3.85886    0.17598   11.81335    0.46954   19.90226
   3.87387    0.17682   11.83988    0.47291   19.97297
   3.88889    0.17766   11.86642    0.47632   20.04412
   3.90390    0.17851   11.89324    0.47976   20.11571
   3.91892    0.17936   11.92007    0.48325   20.18804
   3.93393    0.18023   11.94705    0.48677   20.26067
   3.94895    0.18109   11.97418    0.49033   20.33404
   3.96396    0.18197   12.00145    0.49393   20.40786
   3.97898    0.18285   12.02872    0.49757   20.48212
   3.99399    0.18374   12.05629    0.50125   20.55697
   4.00901    0.18463   12.08386    0.50497   20.63242
   4.02402    0.18554   12.11173    0.50873   20.70846
   4.03904    0.18644   12.13959    0.51254   20.78509
   4.05405    0.18736   12.16761    0.51639   20.86217
   4.06907    0.18828   12.19577    0.52028   20.93998
   4.08408    0.18921   12.22423    0.52422   21.01825
   4.09910    0.19015   12.25269    0.52820   21.09725
   4.11411    0.19109   12.28130    0.53223   21.17670
   4.12913    0.19204   12.30990    0.53630   21.25674
   4.14414    0.19300   12.33881    0.54042   21.33752
   4.15916    0.19397   12.36786    0.54459   21.41890
   4.17417    0.19494   12.39706    0.54881   21.50087
   4.18919    0.19593   12.42641    0.55308   21.58343
   4.20420    0.19691   12.45590    0.55739   21.66673
   4.21922    0.19791   12.48555    0.56176   21.75062
   4.23423    0.19892   12.51534    0.56618   21.83526
   4.24925    0.19993   12.54514    0.57066   21.92049
   4.26426    0.20095   12.57523    0.57518   22.00631
   4.27928    0.20198   12.60546    0.57976   22.09287
   4.29429    0.20302   12.63585    0.58440   22.18018
   4.30931    0.20407   12.66638    0.58909   22.26822
   4.32432    0.20512   12.69721    0.59384   22.35686
   4.33934    0.20618   12.72805    0.59865   22.44624
   4.35435    0.20725   12.75902    0.60351   22.53636
   4.36937    0.20834   12.79015    0.60844   22.62722
   4.38438    0.20942   12.82158    0.61342   22.71883
   4.39940    0.21052   12.85300    0.61847   22.81117
   4.41441    0.21163   12.88472    0.62358   22.90426
   4.42943    0.21275   12.91659    0.62876   22.99808
   4.44444    0.21387   12.94860    0.63400   23.09280
   4.45946    0.21501   12.98077    0.63931   23.18826
   4.47447    0.21615   13.01308    0.64468   23.28445
   4.48949    0.21731   13.04569    0.65012   23.38154
   4.50450    0.21847   13.07830    0.65563   23.47937
   4.51952    0.21965   13.11121    0.66121   23.57808
   4.53453    0.22083   13.14426    0.66687   23.67769
   4.54955    0.22202   13.17746    0.67260   23.77804
   4.56456    0.22323   13.21081    0.67840   23.87928
   4.57958    0.22444   13.24446    0.68427   23.98140
   4.59459    0.22566   13.27825    0.69023   24.08442
   4.60961    0.22690   13.31220    0.69626   24.18833
   4.62462    0.22815   13.34629    0.70237   24.29312
   4.63964    0.22940   13.38068    0.70857   24.39895
   4.65465    0.23067   13.41521    0.71484   24.50567
   4.66967    0.23195   13.44990    0.72121   24.61329
   4.68469    0.23324   13.48473    0.72765   24.72179
   4.69970    0.23454   13.51986    0.73418   24.83132
   4.71472    0.23585   13.55514    0.74081   24.94190
   4.72973    0.23717   13.59056    0.74752   25.05336
   4.74474    0.23851   13.62629    0.75433   25.16602
   4.75976    0.23986   13.66216    0.76122   25.27955
   4.77478    0.24122   13.69832    0.76822   25.39413
   4.78979    0.24259   13.73464    0.77531   25.50975
   4.80481    0.24397   13.77110    0.78250   25.62655
   4.81982    0.24537   13.80786    0.78979   25.74439
   4.83484    0.24677   13.84477    0.79719   25.86326
   4.84985    0.24820   13.88183    0.80469   25.98333
   4.86487    0.24963   13.91918    0.81229   26.10443
   4.87988    0.25108   13.95668    0.82001   26.22671
   4.89490    0.25254   13.99448    0.82783   26.35018
   4.90991    0.25401   14.03257    0.83577   26.47484
   4.92492    0.25550   14.07081    0.84383   26.60068
   4.93994    0.25700   14.10920    0.85200   26.72771
   4.95496    0.25852   14.14789    0.86029   26.85607
   4.96997    0.26005   14.18672    0.86871   26.98547
   4.98499    0.26159   14.22585    0.87724   27.11635
   5.00000    0.26315   14.26528    0.88591   27.24842
   5.01502    0.26472   14.30486    0.89471   27.38182
   5.03003    0.26631   14.34473    0.90363   27.51656
   5.04505    0.26791   14.38475    0.91270   27.65263
   5.06006    0.26953   14.42507    0.92190   27.79004
   5.07508    0.27116   14.46568    0.93124   27.92877
   5.09009    0.27281   14.50644    0.94072   28.06899
   5.10511    0.27447   14.54750    0.95035   28.21070
   5.12012    0.27615   14.58886    0.96013   28.35373
   5.13514    0.27785   14.63036    0.97006   28.49825
   5.15015    0.27956   14.67216    0.98015   28.64440
   5.16517    0.28129   14.71425    0.99040   28.79189
   5.18018    0.28304   14.75650    1.00081   28.94100
   5.19520    0.28481   14.79919    1.01138   29.09174
   5.21021    0.28659   14.84202    1.02213   29.24412
   5.22523    0.28839   14.88516    1.03305   29.39798
   5.24024    0.29020   14.92859    1.04414   29.55346
   5.25526    0.29204   14.97217    1.05541   29.71073
   5.27027    0.29389   15.01619    1.06687   29.86963
   5.28529    0.29576   15.06036    1.07852   30.03030
   5.30030    0.29765   15.10483    1.09036   30.19261
   5.31532    0.29956   15.14974    1.10240   30.35684
   5.33033    0.30149   15.19480    1.11463   30.52285
   5.34535    0.30344   15.24016    1.12708   30.69064
   5.36036    0.30541   15.28581    1.13973   30.86036
   5.37538    0.30740   15.33176    1.15260   31.03200
   5.39039    0.30941   15.37800    1.16569   31.20557
   5.40541    0.31144   15.42455    1.17901   31.38107
   5.42042    0.31349   15.47139    1.19256   31.55850
   5.43544    0.31556   15.51867    1.20634   31.73815
   5.45045    0.31766   15.56610    1.22036   31.91972
   5.46547    0.31978   15.61398    1.23463   32.10352
   5.48048    0.32192   15.66200    1.24915   32.28939
   5.49550    0.32408   15.71047    1.26394   32.47749
   5.51051    0.32626   15.75924    1.27898   32.66781
   5.52553    0.32847   15.80830    1.29430   32.86035
   5.54054    0.33070   15.85781    1.30990   33.05527
   5.55556    0.33296   15.90761    1.32578   33.25256
   5.57057    0.33524   15.95771    1.34196   33.45206
   5.58559    0.33754   16.00811    1.35843   33.65409
   5.60060    0.33987   16.05895    1.37521   33.85865
   5.61562    0.34223   16.11009    1.39230   34.06572
   5.63063    0.34461   16.16152    1.40972   34.27545
   5.64565    0.34702   16.21340    1.42746   34.48771
   5.66066    0.34945   16.26572    1.44555   34.70249
   5.67568    0.35191   16.31834    1.46398   34.92023
   5.69069    0.35440   16.37126    1.48277   35.14064
   5.70571    0.35692   16.42462    1.50192   35.36386
   5.72072    0.35946   16.47828    1.52145   35.59006
   5.73574    0.36204   16.53238    1.54137   35.81907
   5.75075    0.36464   16.58692    1.56168   36.05119
   5.76577    0.36727   16.64177    1.58240   36.28627
   5.78078    0.36993   16.69706    1.60353   36.52446
   5.79580    0.37263   16.75279    1.62509   36.76592
   5.81081    0.37535   16.80882    1.64709   37.01064
   5.82583    0.37811   16.86529    1.66954   37.25847
   5.84084    0.38090   16.92221    1.69246   37.50986
   5.85586    0.38372   16.97957    1.71585   37.76466
   5.87087    0.38657   17.03723    1.73973   38.02301
   5.88589    0.38946   17.09548    1.76412   38.28493
   5.90090    0.39239   17.15403    1.78903   38.55055
   5.91592    0.39534   17.21317    1.81447   38.81987
   5.93093    0.39834   17.27261    1.84045   39.09290
   5.94595    0.40136   17.33264    1.86701   39.37008
   5.96096    0.40443   17.39297    1.89414   39.65112
   5.97598    0.40753   17.45389    1.92187   39.93615
   5.99099    0.41067   17.51525    1.95022   40.22549
   6.00601    0.41385   17.57706    1.97921   40.51912
   6.02102    0.41707   17.63932    2.00884   40.81690
   6.03604    0.42033   17.70217    2.03915   41.11928
   6.05105    0.42363   17.76546    2.07016   41.42625
   6.06607    0.42697   17.82920    2.10188   41.73782
   6.08108    0.43035   17.89338    2.13433   42.05428
   6.09610    0.43378   17.95815    2.16755   42.37548
   6.11111    0.43724   18.02352    2.20155   42.70173
   6.12613    0.44076   18.08933    2.23636   43.03301
   6.14114    0.44431   18.15573    2.27201   43.36963
   6.15616    0.44792   18.22258    2.30852   43.71143
   6.17117    0.45156   18.29002    2.34592   44.05887
   6.18619    0.45526   18.35791    2.38424   44.41194
   6.20120    0.45901   18.42654    2.42351   44.77065
   6.21622    0.46280   18.49561    2.46376   45.13543
   6.23123    0.46664   18.56528    2.50502   45.50613
   6.24625    0.47054   18.63554    2.54734   45.88292
   6.26126    0.47449   18.70639    2.59074   46.26623
   6.27628    0.47849   18.77768    2.63526   46.65606
   6.29129    0.48254   18.84972    2.68095   47.05256
   6.30631    0.48665   18.92235    2.72783   47.45588
   6.32132    0.49081   18.99572    2.77596   47.86617
   6.33634    0.49503   19.06954    2.82538   48.28371
   6.35135    0.49931   19.14409    2.87614   48.70882
   6.36637    0.50365   19.21924    2.92828   49.14134
   6.38138    0.50805   19.29499    2.98186   49.58172
   6.39640    0.51251   19.37147    3.03693   50.03025
   6.41141    0.51703   19.44870    3.09354   50.48692
   6.42643    0.52162   19.52651    3.15175   50.95220
   6.44144    0.52627   19.60507    3.21163   51.42607
   6.45646    0.53098   19.68423    3.27323   51.90899
   6.47147    0.53577   19.76427    3.33663   52.40110
   6.48649    0.54062   19.84490    3.40190   52.90269
   6.50150    0.54554   19.92628    3.46910   53.41421
   6.51652    0.55054   20.00839    3.53833   53.93567
   6.53153    0.55561   20.09125    3.60965   54.46749
   6.54655    0.56075   20.17485    3.68315   55.01000
   6.56156    0.56597   20.25934    3.75893   55.56347
   6.57658    0.57127   20.34457    3.83708   56.12835
   6.59159    0.57665   20.43054    3.91769   56.70480
   6.60661    0.58210   20.51725    4.00088   57.29340
   6.62162    0.58764   20.60500    4.08676   57.89445
   6.63664    0.59327   20.69349    4.17544   58.50825
   6.65165    0.59898   20.78272    4.26704   59.13538
   6.66667    0.60478   20.87284    4.36169   59.77616
   6.68168    0.61067   20.96400    4.45954   60.43102
   6.69670    0.61665   21.05589    4.56072   61.10055
   6.71171    0.62272   21.14868    4.66540   61.78519
   6.72673    0.62889   21.24251    4.77372   62.48541
   6.74174    0.63516   21.33708    4.88587   63.20178
   6.75676    0.64153   21.43283    5.00203   63.93490
   6.77177    0.64800   21.52933    5.12239   64.68536
   6.78679    0.65457   21.62686    5.24715   65.45361
   6.80180    0.66125   21.72543    5.37653   66.24053
   6.81682    0.66805   21.82503    5.51076   67.04672
   6.83183    0.67495   21.92553    5.65009   67.87292
   6.84685    0.68197   22.02721    5.79477   68.71973
   6.86186    0.68910   22.12978    5.94509   69.58804
   6.87688    0.69636   22.23354    6.10135   70.47871
   6.89189    0.70373   22.33848    6.26385   71.39252
   6.90691    0.71124   22.44431    6.43294   72.33048
   6.92192    0.71887   22.55148    6.60897   73.29350
   6.93694    0.72663   22.65969    6.79234   74.28260
   6.95195    0.73453   22.76908    6.98344   75.29883
   6.96697    0.74256   22.87965    7.18273   76.34337
   6.98198    0.75074   22.99141    7.39068   77.41740
   6.99700    0.75906   23.10451    7.60779   78.52213
   7.01201    0.76753   23.21879    7.83460   79.65886
   7.02703    0.77615   23.33426    8.07171   80.82909
   7.04204    0.78492   23.45106    8.31974   82.03416
   7.05706    0.79386   23.56934    8.57938   83.27569
   7.07207    0.80296   23.68881    8.85136   84.55546
   7.08709    0.81223   23.80961    9.13646   85.87525
   7.10210    0.82167   23.93190    9.43556   87.23684
   7.11712    0.83128   24.05566    9.74956   88.64216
   7.13213    0.84108   24.18077   10.07948   90.09342
   7.14715    0.85106   24.30735   10.42641   91.59301
   7.16216    0.86123   24.43556   10.79153   93.14314
   7.17718    0.87160   24.56511   11.17613   94.74649
   7.19219    0.88217   24.69629   11.58162   96.40586
   7.20721    0.89295   24.82910   12.00952   98.12408
   7.22222    0.90393   24.96354   12.46152   99.90426
    7.2372     0.9151    25.0996    12.9395   101.7500
    7.2523     0.9266    25.2375    13.4453   103.6646
    7.2673     0.9382    25.3769    13.9814   105.6521
    7.2823     0.9501    25.5182    14.5499   107.7166
    7.2973     0.9623    25.6611    15.1538   109.8626
    7.3123     0.9746    25.8060    15.7959   112.0948
    7.3273     0.9873    25.9526    16.4794   114.4187
    7.3423     1.0002    26.1013    17.2080   116.8398
    7.3574     1.0134    26.2519    17.9858   119.3639
    7.3724     1.0268    26.4044    18.8172   121.9979
    7.3874     1.0406    26.5590    19.7073   124.7486
    7.4024     1.0546    26.7156    20.6615   127.6239
    7.4174     1.0690    26.8743    21.6862   130.6321
    7.4324     1.0837    27.0353    22.7885   133.7825
    7.4474     1.0986    27.1983    23.9762   137.0846
    7.4625     1.1140    27.3636    25.2583   140.5497
    7.4775     1.1296    27.5314    26.6450   144.1893
    7.4925     1.1457    27.7014    28.1479   148.0163
    7.5075     1.1621    27.8738    29.7802   152.0452
    7.5225     1.1788    28.0487    31.5567   156.2908
    7.5375     1.1960    28.2260    33.4948   160.7706
    7.5526     1.2136    28.4061    35.6145   165.5028
    7.5676     1.2315    28.5887    37.9385   170.5081
    7.5826     1.2500    28.7740    40.4937   175.8089
    7.5976     1.2688    28.9620    43.3111   181.4296
    7.6126     1.2881    29.1530    46.4268   187.3972
    7.6276     1.3079    29.3467    49.8837   193.7414
    7.6426     1.3282    29.5435    53.7319   200.4944
    7.6577     1.3490    29.7433    58.0310   207.6913
    7.6727     1.3703    29.9463    62.8521   215.3700
    7.6877     1.3922    30.1524    68.2801   223.5713
    7.7027     1.4146    30.3619    74.4173   232.3380
    7.7177     1.4376    30.5747    81.3871   241.7149
    7.7327     1.4612    30.7910    89.3397   251.7464
    7.7477     1.4855    31.0108    98.4584   262.4746
    7.7628     1.5103    31.2342   108.9680   273.9353
    7.7778     1.5359    31.4613   121.1460   286.1519
    7.7928     1.5622    31.6923   135.3331   299.1219
    7.8078     1.5892    31.9273   151.9527   312.8058
    7.8228     1.6169    32.1662   171.5270   327.0970
    7.8378     1.6454    32.4093   194.6982   341.7845
    7.8529     1.6748    32.6567   222.2459   356.4912
    7.8679     1.7049    32.9085   255.0956   370.5824
    7.8829     1.7360    33.1648   294.2992   383.0301
    7.8979     1.7680    33.4258   340.9542   392.2283
    7.9129     1.8009    33.6916   396.0019   395.7555
    7.9279     1.8348    33.9623   459.8131   390.1439
    7.9429     1.8698    34.2380   531.4558   370.8000
    7.9580     1.9058    34.5190   607.6328   332.4052
    7.9730     1.9430    34.8054   681.6063   270.2689
    7.9880     1.9813    35.0974   743.0498   182.8761
    8.0030     2.0209    35.3950   780.1642    74.7771
    8.0180     2.0617    35.6986   784.2811   -42.5712
    8.0330     2.1039    36.0082   754.3614  -154.0953
    8.0480     2.1475    36.3242   697.5995  -247.0246
    8.0631     2.1925    36.6466   625.5323  -315.1341
    8.0781     2.2390    36.9758   549.1277  -358.7469
    8.0931     2.2872    37.3120   476.0151  -382.0753
    8.1081     2.3370    37.6553   410.2164  -390.4568
    8.1231     2.3886    38.0060   353.1140  -388.7181
    8.1381     2.4420    38.3644   304.5640  -380.5953
    8.1532     2.4973    38.7306   263.7113  -368.7365
    8.1682     2.5547    39.1054   229.4709  -354.9170
    8.1832     2.6142    39.4884   200.7698  -340.2816
    8.1982     2.6760    39.8804   176.6495  -325.5431
    8.2132     2.7401    40.2815   156.2961  -311.1297
    8.2282     2.8067    40.6922   139.0368  -297.2852
    8.2432     2.8759    41.1128   124.3229  -284.1361
    8.2583     2.9479    41.5436   111.7100  -271.7355
    8.2733     3.0228    41.9851   100.8387  -260.0921
    8.2883     3.1007    42.4377    91.4183  -249.1875
    8.3033     3.1819    42.9018    83.2123  -238.9879
    8.3183     3.2666    43.3779    76.0293  -229.4533
    8.3333     3.3549    43.8666    69.7117  -220.5388
    8.3483     3.4470    44.3682    64.1302  -212.1998
    8.3634     3.5432    44.8834    59.1779  -204.3927
    8.3784     3.6438    45.4129    54.7662  -197.0763
    8.3934     3.7490    45.9572    50.8211  -190.2121
    8.4084     3.8590    46.5169    47.2804  -183.7641
    8.4234     3.9743    47.0927    44.0919  -177.6994
    8.4384     4.0952    47.6856    41.2114  -171.9880
    8.4535     4.2219    48.2960    38.6010  -166.6021
    8.4685     4.3551    48.9251    36.2286  -161.5168
    8.4835     4.4949    49.5737    34.0667  -156.7090
    8.4985     4.6420    50.2425    32.0915  -152.1580
    8.5135     4.7969    50.9329    30.2823  -147.8445
    8.5285     4.9601    51.6457    28.6214  -143.7515
    8.5435     5.1323    52.3823    27.0932  -139.8629
    8.5586     5.3141    53.1439    25.6841  -136.1643
    8.5736     5.5062    53.9317    24.3823  -132.6428
    8.5886     5.7095    54.7472    23.1774  -129.2861
    8.6036     5.9249    55.5919    22.0600  -126.0832
    8.6186     6.1533    56.4675    21.0220  -123.0240
    8.6336     6.3959    57.3758    20.0561  -120.0992
    8.6486     6.6539    58.3188    19.1560  -117.3002
    8.6637     6.9285    59.2984    18.3159  -114.6191
    8.6787     7.2214    60.3172    17.5307  -112.0487
    8.6937     7.5341    61.3771    16.7957  -109.5823
    8.7087     7.8685    62.4811    16.1069  -107.2137
    8.7237     8.2267    63.6318    15.4605  -104.9371
    8.7387     8.6109    64.8325    14.8533  -102.7472
    8.7538     9.0239    66.0867    14.2821  -100.6392
   8.76877    9.46856   67.39758   13.74424  -98.60841
   8.78378    9.94821   68.76954   13.23727  -96.65066
   8.79880   10.46662   70.20673   12.75892  -94.76190
   8.81381   11.02811   71.71416   12.30716  -92.93845
   8.82883   11.63763   73.29676   11.88008  -91.17680
   8.84384   12.30071   74.96043   11.47605  -89.47392
   8.85886   13.02385   76.71127   11.09348  -87.82662
   8.87387   13.81451   78.55607   10.73095  -86.23225
   8.88889   14.68128   80.50270   10.38716  -84.68797
   8.90390   15.63419   82.55902   10.06092  -83.19142
   8.91892   16.68491   84.73437    9.75114  -81.74015
   8.93393   17.84713   87.03851    9.45680  -80.33209
   8.94895   19.13695   89.48244    9.17699  -78.96510
   8.96396   20.57342   92.07771    8.91084  -77.63722
   8.97898   22.17913   94.83735    8.65758  -76.34663
   8.99399   23.98109   97.77502    8.41648  -75.09154
    9.0090    26.0117   100.9057     8.1869   -73.8703
    9.0240    28.3099   104.2444     7.9682   -72.6815
    9.0390    30.9231   107.8072     7.7597   -71.5234
    9.0541    33.9088   111.6091     7.5611   -70.3947
    9.0691    37.3375   115.6644     7.3718   -69.2942
    9.0841    41.2961   119.9839     7.1914   -68.2204
    9.0991    45.8910   124.5718     7.0194   -67.1722
    9.1141    51.2543   129.4223     6.8555   -66.1484
    9.1291    57.5493   134.5117     6.6994   -65.1479
    9.1441    64.9773   139.7876     6.5507   -64.1696
    9.1592    73.7845   145.1519     6.4091   -63.2125
    9.1742    84.2671   150.4342     6.2745   -62.2757
    9.1892    96.7704   155.3545     6.1465   -61.3579
    9.2042   111.6737   159.4664     6.0250   -60.4586
    9.2192   129.3452   162.0834     5.9097   -59.5766
    9.2342   150.0394   162.1947     5.8006   -58.7112
    9.2492   173.7041   158.3992     5.6975   -57.8615
    9.2643   199.6646   148.9417     5.6003   -57.0265
    9.2793   226.2266   131.9935     5.5090   -56.2057
    9.2943   250.4043   106.3305     5.4234   -55.3980
    9.3093   268.2010    72.3506     5.3436   -54.6028
    9.3243   275.8126    32.8561     5.2696   -53.8192
    9.3393   271.3827    -7.3207     5.2014   -53.0464
    9.3544   256.0345   -43.0711     5.1391   -52.2837
    9.3694   233.2365   -70.9656     5.0828   -51.5302
    9.3844   207.0882   -90.0306     5.0327   -50.7852
    9.3994   180.8980  -101.1742     4.9891   -50.0479
    9.4144   156.6816  -106.1512     4.9521   -49.3174
    9.4294   135.3392  -106.7760     4.9221   -48.5928
    9.4444   117.0494  -104.5512     4.8995   -47.8732
    9.4595   101.6144  -100.5839     4.8849   -47.1578
   9.47447   88.68331  -95.63577    4.87872  -46.44558
   9.48949   77.87428  -90.20674    4.88182  -45.73558
   9.50451   68.83160  -84.61311    4.89501  -45.02678
   9.51952   61.24676  -79.04847    4.91932  -44.31797
   9.53453   54.86191  -73.62553    4.95597  -43.60804
   9.54955   49.46577  -68.40579    5.00645  -42.89575
   9.56456   44.88704  -63.41782    5.07254  -42.17990
   9.57958   40.98750  -58.67026    5.15637  -41.45901
   9.59459   37.65568  -54.15926    5.26055  -40.73175
   9.60961   34.80160  -49.87350    5.38823  -39.99663
   9.62463   32.35297  -45.79851    5.54324  -39.25224
   9.63964   30.25095  -41.91687    5.73030  -38.49726
   9.65466   28.44802  -38.21082    5.95520  -37.73042
   9.66967   26.90575  -34.66254    6.22507  -36.95091
   9.68469   25.59311  -31.25441    6.54876  -36.15842
   9.69970   24.48523  -27.96961    6.93719  -35.35379
   9.71472   23.56233  -24.79197    7.40388  -34.53937
   9.72973   22.80911  -21.70586    7.96548  -33.72028
   9.74475   22.21406  -18.69638    8.64221  -32.90601
   9.75976   21.76917  -15.74931    9.45817  -32.11249
   9.77478   21.46965  -12.85063   10.44079  -31.36573
   9.78979   21.31381   -9.98708   11.61897  -30.70672
   9.80480   21.30309   -7.14539   13.01790  -30.19742
   9.81982   21.44220   -4.31289   14.64868  -29.92699
   9.83484   21.73945   -1.47698   16.48961  -30.01437
   9.84985   22.20711    1.37449   18.45864  -30.59867
   9.86487   22.86211    4.25286   20.38464  -31.80566
   9.87988   23.72696    7.16933   22.00109  -33.68256
   9.89490   24.83068   10.13248   22.99699  -36.12048
   9.90991   26.21051   13.14960   23.13561  -38.82788
   9.92493   27.91365   16.22333   22.37572  -41.40965
   9.93994   29.99952   19.34998   20.89527  -43.52230
   9.95496   32.54241   22.51546   18.99460  -44.99031
   9.96997   35.63423   25.68940   16.96583  -45.81333
   9.98499   39.38699   28.81560   15.01560  -46.09777
  10.00000   43.93330   31.79847   13.25487  -45.98372
  10.01502   49.42256   34.48223   11.72330  -45.59922
  10.03003   56.00703   36.62363   10.41890  -45.04427
  10.04505   63.80895   37.85775    9.31990  -44.38971
  10.06006   72.85465   37.66728    8.39796  -43.68341
  10.07508   82.96196   35.37928    7.62479  -42.95601
  10.09009   93.58430   30.24212    6.97504  -42.22659
   10.1051   103.6703    21.6470     6.4271   -41.5065
   10.1201   111.6887     9.5134     5.9632   -40.8024
   10.1351   116.0002    -5.3282     5.5688   -40.1172
   10.1502   115.5432   -21.1098     5.2321   -39.4523
   10.1652   110.4037   -35.6992     4.9437   -38.8079
   10.1802   101.7642   -47.4384     4.6959   -38.1829
  10.19520   91.28483  -55.63558    4.48267  -37.57656
  10.21021   80.44244  -60.47081    4.29893  -36.98722
  10.22523   70.21340  -62.59280    4.14071  -36.41352
  10.24024   61.08298  -62.75229    4.00476  -35.85397
  10.25526   53.19482  -61.60369    3.88846  -35.30695
  10.27027   46.50252  -59.64313    3.78969  -34.77112
  10.28529   40.87532  -57.21766    3.70679  -34.24492
  10.30030   36.15843  -54.55806    3.63841  -33.72710
  10.31532   32.20263  -51.81153    3.58355  -33.21617
  10.33033   28.87630  -49.06908    3.54144  -32.71094
  10.34535   26.06834  -46.38451    3.51159  -32.21009
  10.36036   23.68727  -43.78769    3.49369  -31.71235
  10.37538   21.65862  -41.29337    3.48767  -31.21647
  10.39039   19.92215  -38.90666    3.49366  -30.72118
  10.40541   18.42909  -36.62711    3.51198  -30.22514
  10.42042   17.14024  -34.45095    3.54320  -29.72711
  10.43544   16.02357  -32.37225    3.58812  -29.22574
  10.45045   15.05315  -30.38419    3.64780  -28.71970
  10.46547   14.20777  -28.47965    3.72363  -28.20751
  10.48048   13.47007  -26.65145    3.81733  -27.68776
  10.49550   12.82578  -24.89247    3.93106  -27.15875
  10.51051   12.26312  -23.19604    4.06751  -26.61906
  10.52553   11.77236  -21.55578    4.22996  -26.06693
  10.54054   11.34546  -19.96563    4.42248  -25.50085
  10.55556   10.97577  -18.41987    4.65008  -24.91922
  10.57057   10.65779  -16.91317    4.91895  -24.32054
  10.58559   10.38701  -15.44048    5.23674  -23.70393
  10.60060   10.15976  -13.99692    5.61295  -23.06886
  10.61562    9.97311  -12.57804    6.05934  -22.41586
  10.63063    9.82476  -11.17932    6.59051  -21.74722
  10.64565    9.71299   -9.79661    7.22445  -21.06798
  10.66066    9.63661   -8.42568    7.98318  -20.38733
  10.67568    9.59494   -7.06253    8.89300  -19.72150
  10.69069    9.58777   -5.70324    9.98440  -19.09674
  10.70571    9.61538   -4.34372   11.29033  -18.55505
  10.72072    9.67853   -2.97991   12.84152  -18.16025
  10.73574    9.77851   -1.60779   14.65645  -18.00580
  10.75075    9.91715   -0.22308   16.72267  -18.21910
  10.76577   10.09691    1.17839   18.96771  -18.95570
  10.78078   10.32093    2.60134   21.22479  -20.36902
  10.79580   10.59317    4.05038   23.21519  -22.54518
  10.81081   10.91850    5.53026   24.58635  -25.41318
  10.82583   11.30289    7.04645   25.03024  -28.69065
  10.84084   11.75365    8.60414   24.43292  -31.94136
  10.85586   12.27966   10.20926   22.93885  -34.74036
  10.87087   12.89173   11.86745   20.87008  -36.83151
  10.88589   13.60308   13.58523   18.57487  -38.16776
  10.90090   14.42984   15.36837   16.31850  -38.84833
  10.91592   15.39180   17.22310   14.25437  -39.02983
  10.93093   16.51338   19.15462   12.44547  -38.86523
  10.94595   17.82449   21.16677   10.89919  -38.47777
  10.96096   19.36232   23.26148    9.59460  -37.95683
  10.97598   21.17290   25.43653    8.50026  -37.36327
  10.99099   23.31315   27.68316    7.58337  -36.73658
  11.00601   25.85327   29.98183    6.81388  -36.10180
  11.02102   28.87895   32.29651    6.16597  -35.47392
  11.03604   32.49287   34.56479    5.61817  -34.86168
  11.05105   36.81376   36.68396    5.15292  -34.26975
  11.06607   41.96986   38.49141    4.75601  -33.70005
  11.08108   48.08081   39.73872    4.41597  -33.15310
  11.09610   55.21860   40.06288    4.12355  -32.62838
  11.11111   63.33489   38.96854    3.87129  -32.12486
  11.12613   72.14786   35.85152    3.65315  -31.64113
  11.14114   81.00899   30.11509    3.46426  -31.17571
  11.15616   88.83456   21.42586    3.30067  -30.72703
  11.17117   94.25417   10.06089    3.15917  -30.29347
  11.18619   96.07130   -2.88178    3.03719  -29.87355
  11.20120   93.84410  -15.70358    2.93266  -29.46586
  11.21622   88.13582  -26.75387    2.84394  -29.06892
  11.23123   80.19936  -35.03674    2.76978  -28.68138
  11.24625   71.38874  -40.36985    2.70922  -28.30200
  11.26126   62.73533  -43.13862    2.66164  -27.92959
  11.27628   54.83549  -43.95126    2.62666  -27.56281
  11.29129   47.93480  -43.40171    2.60421  -27.20062
  11.30631   42.06175  -41.96801    2.59447  -26.84192
  11.32132   37.13610  -39.99655    2.59792  -26.48558
  11.33634   33.03649  -37.72249    2.61537  -26.13066
  11.35135   29.63636  -35.29887    2.64801  -25.77596
  11.36637   26.82010  -32.82108    2.69745  -25.42074
  11.38138   24.48862  -30.34646    2.76581  -25.06418
  11.39640   22.55993  -27.90735    2.85586  -24.70563
  11.41141   20.96748  -25.52012    2.97112  -24.34485
  11.42643   19.65795  -23.19085    3.11605  -23.98207
  11.44144   18.58897  -20.91938    3.29626  -23.61825
  11.45646   17.72713  -18.70150    3.51869  -23.25562
  11.47147   17.04651  -16.53090    3.79179  -22.89855
  11.48649   16.52714  -14.39957    4.12560  -22.55422
  11.50150   16.15413  -12.29871    4.53142  -22.23458
  11.51652   15.91698  -10.21920    5.02071  -21.95799
  11.53153   15.80896   -8.15154    5.60260  -21.75240
  11.54655   15.82684   -6.08603    6.27879  -21.65709
  11.56156   15.97072   -4.01311    7.03497  -21.72328
  11.57658   16.24399   -1.92307    7.82899  -22.00764
  11.59159   16.65353    0.19388    8.58033  -22.55563
  11.60661   17.20998    2.34699    9.17256  -23.37190
  11.62162   17.92830    4.54575    9.48203  -24.39191
  11.63664   18.82844    6.79862    9.43017  -25.48047
  11.65165   19.93635    9.11300    9.02568  -26.47654
  11.66667   21.28524   11.49437    8.35950  -27.25613
  11.68168   22.91723   13.94482    7.55735  -27.76862
  11.69670   24.88531   16.46078    6.73019  -28.02882
  11.71171   27.25587   19.03011    5.95085  -28.08626
  11.72673   30.11069   21.62612    5.25536  -27.99770
  11.74174   33.54994   24.20018    4.65409  -27.81227
  11.75676   37.69250   26.66931    4.14328  -27.56718
  11.77177   42.67316   28.89861    3.71296  -27.28844
  11.78679   48.63136   30.67641    3.35143  -26.99325
  11.80180   55.68357   31.68419    3.04742  -26.69265
  11.81682   63.86742   31.46689    2.79102  -26.39346
  11.83183   73.04420   29.42688    2.57387  -26.09953
  11.84685   82.76021   24.88128    2.38910  -25.81316
  11.86186   92.11272   17.24904    2.23111  -25.53532
  11.87688   99.74804    6.38611    2.09539  -25.26644
   11.8919   104.1610    -7.0503     1.9783   -25.0065
   11.9069   104.3008   -21.5311     1.8769   -24.7550
   11.9219   100.1246   -35.1174     1.7888   -24.5116
  11.93694   92.62193  -46.22606    1.71201  -24.27563
  11.95195   83.28702  -54.13095    1.64510  -24.04662
  11.96697   73.49989  -58.92661    1.58673  -23.82392
  11.98198   64.19943  -61.17481    1.53591  -23.60691
  11.99700   55.87008  -61.55886    1.49179  -23.39518
  12.01201   48.66836  -60.68663    1.45372  -23.18803
  12.02703   42.56581  -59.02429    1.42118  -22.98504
  12.04204   37.44924  -56.89986    1.39377  -22.78560
  12.05706   33.17951  -54.53227    1.37121  -22.58943
  12.07207   29.62069  -52.06152    1.35330  -22.39585
  12.08709   26.65226  -49.57423    1.33994  -22.20456
  12.10210   24.17246  -47.12149    1.33114  -22.01506
  12.11712   22.09767  -44.73151    1.32697  -21.82696
  12.13213   20.36022  -42.41787    1.32764  -21.63983
  12.14715   18.90585  -40.18494    1.33344  -21.45329
  12.16216   17.69132  -38.03169    1.34480  -21.26682
  12.17718   16.68243  -35.95336    1.36231  -21.08013
  12.19219   15.85230  -33.94328    1.38671  -20.89285
  12.20721   15.18010  -31.99376    1.41898  -20.70460
  12.22222   14.65007  -30.09641    1.46036  -20.51525
  12.23724   14.25074  -28.24257    1.51240  -20.32456
  12.25225   13.97449  -26.42392    1.57707  -20.13268
  12.26727   13.81714  -24.63189    1.65682  -19.93999
  12.28228   13.77786  -22.85831    1.75467  -19.74744
  12.29730   13.85917  -21.09532    1.87433  -19.55690
  12.31231   14.06711  -19.33560    2.02020  -19.37118
  12.32733   14.41162  -17.57277    2.19728  -19.19538
  12.34234   14.90709  -15.80141    2.41075  -19.03715
  12.35736   15.57312  -14.01819    2.66499  -18.90820
  12.37237   16.43546  -12.22282    2.96151  -18.82534
  12.38739   17.52731  -10.41974    3.29540  -18.81066
  12.40240   18.89052   -8.62074    3.65018  -18.88944
  12.41742   20.57689   -6.84946    3.99276  -19.08369
  12.43243   22.64871   -5.14717    4.27312  -19.39934
  12.44745   25.17741   -3.58259    4.43512  -19.81281
  12.46246   28.23816   -2.26450    4.43881  -20.26808
  12.47748   31.89610   -1.35789    4.28139  -20.69297
  12.49249   36.17798   -1.10057    3.99879  -21.02788
  12.50751   41.02225   -1.80945    3.64640  -21.24466
  12.52252   46.20440   -3.85384    3.27596  -21.34619
  12.53754   51.26252   -7.56397    2.92292  -21.35309
  12.55255   55.48233  -13.05570    2.60568  -21.29076
  12.56757   58.03843  -20.02744    2.33035  -21.18196
  12.58258   58.31141  -27.69287    2.09597  -21.04419
  12.59760   56.20725  -35.00057    1.89836  -20.88981
  12.61261   52.21082  -41.04695    1.73233  -20.72706
  12.62763   47.12285  -45.37888    1.59277  -20.56127
  12.64264   41.71432  -48.00498    1.47515  -20.39563
  12.65766   36.52673  -49.21271    1.37563  -20.23214
  12.67267   31.84834  -49.37376    1.29102  -20.07191
  12.68769   27.78038  -48.82666    1.21874  -19.91538
  12.70270   24.31515  -47.83445    1.15671  -19.76293
  12.71772   21.39380  -46.58387    1.10322  -19.61434
  12.73273   18.94059  -45.20005    1.05692  -19.46960
  12.74775   16.88026  -43.76368    1.01671  -19.32849
  12.76276   15.14542  -42.32494    0.98169  -19.19071
  12.77778   13.67873  -40.91369    0.95112  -19.05605
  12.79279   12.43294  -39.54699    0.92443  -18.92420
  12.80781   11.36932  -38.23327    0.90112  -18.79495
  12.82282   10.45654  -36.97610    0.88080  -18.66807
  12.83784    9.66930  -35.77571    0.86314  -18.54327
  12.85285    8.98714  -34.63030    0.84789  -18.42031
  12.86787    8.39346  -33.53737    0.83482  -18.29899
  12.88288    7.87477  -32.49350    0.82377  -18.17908
  12.89790    7.42009  -31.49528    0.81461  -18.06042
  12.91291    7.02042  -30.53908    0.80724  -17.94281
  12.92793    6.66836  -29.62165    0.80158  -17.82601
  12.94294    6.35785  -28.73956    0.79760  -17.70987
  12.95796    6.08388  -27.88979    0.79528  -17.59426
  12.97297    5.84237  -27.06952    0.79464  -17.47894
  12.98799    5.62994  -26.27614    0.79570  -17.36370
  13.00300    5.44385  -25.50730    0.79853  -17.24845
  13.01802    5.28190  -24.76092    0.80324  -17.13291
  13.03303    5.14225  -24.03528    0.80996  -17.01707
  13.04805    5.02340  -23.32914    0.81884  -16.90064
  13.06306    4.92389  -22.64153    0.83010  -16.78362
  13.07808    4.84211  -21.97185    0.84399  -16.66578
  13.09309    4.77595  -21.31973    0.86077  -16.54705
  13.10811    4.72250  -20.68474    0.88075  -16.42758
  13.12312    4.67818  -20.06509    0.90418  -16.30730
  13.13814    4.63954  -19.45737    0.93125  -16.18642
  13.15315    4.60456  -18.85654    0.96196  -16.06510
  13.16817    4.57365  -18.25697    0.99611  -15.94333
  13.18318    4.54936  -17.65414    1.03337  -15.82053
  13.19820    4.53517  -17.04553    1.07362  -15.69580
  13.21321    4.53422  -16.43010    1.11739  -15.56766
  13.22823    4.54891  -15.80749    1.16609  -15.43470
  13.24324    4.58092  -15.17753    1.22191  -15.29574
  13.25826    4.63158  -14.53979    1.28746  -15.15048
  13.27327    4.70216  -13.89346    1.36557  -14.99907
  13.28829    4.79411  -13.23720    1.45925  -14.84195
  13.30330    4.90926  -12.56952    1.57188  -14.68024
  13.31832    5.04989  -11.88880    1.70739  -14.51519
  13.33333    5.21888  -11.19288    1.87051  -14.34925
  13.34835    5.41986  -10.47985    2.06689  -14.18591
  13.36336    5.65731   -9.74732    2.30305  -14.03116
  13.37838    5.93678   -8.99308    2.58606  -13.89413
  13.39339    6.26512   -8.21483    2.92252  -13.78874
  13.40841    6.65081   -7.41049    3.31635  -13.73531
  13.42342    7.10435   -6.57836    3.76480  -13.76139
  13.43844    7.63873   -5.71747    4.25207  -13.90080
  13.45345    8.27007   -4.82812    4.74193  -14.18680
  13.46847    9.01838   -3.91268    5.17389  -14.63785
  13.48348    9.90836   -2.97702    5.47152  -15.23860
  13.49850   10.97032   -2.03238    5.56813  -15.92762
  13.51351   12.24084   -1.09886    5.43917  -16.61034
  13.52853   13.76283   -0.20944    5.11611  -17.19479
  13.54354   15.58393    0.58252    4.66880  -17.62553
  13.55856   17.75149    1.19499    4.17265  -17.89249
  13.57358   20.30036    1.50567    3.68512  -18.01729
  13.58859   23.23075    1.34380    3.23937  -18.03382
  13.60360   26.46988    0.49211    2.84901  -17.97519
  13.61862   29.82206   -1.28311    2.51561  -17.86810
  13.63363   32.93058   -4.15333    2.23458  -17.73196
  13.64865   35.29918   -8.10047    1.99917  -17.57988
  13.66366   36.43163  -12.81046    1.80222  -17.42032
  13.67868   36.05068  -17.69335    1.63728  -17.25890
  13.69369   34.25089  -22.09236    1.49871  -17.09859
  13.70871   31.44457  -25.53672    1.38189  -16.94148
  13.72372   28.15324  -27.86459    1.28302  -16.78851
  13.73874   24.81373  -29.16838    1.19902  -16.64006
  13.75375   21.70267  -29.66293    1.12742  -16.49628
  13.76877   18.94873  -29.58059    1.06620  -16.35695
  13.78378   16.58425  -29.11753    1.01378  -16.22199
  13.79880   14.58811  -28.42006    0.96883  -16.09097
  13.81381   12.91812  -27.58956    0.93031  -15.96357
  13.82883   11.52607  -26.69295    0.89738  -15.83943
  13.84384   10.36725  -25.77314    0.86934  -15.71818
  13.85886    9.40232  -24.85645    0.84566  -15.59960
  13.87387    8.59902  -23.95924    0.82588  -15.48324
  13.88889    7.93075  -23.09087    0.80967  -15.36889
  13.90390    7.37645  -22.25755    0.79677  -15.25624
  13.91892    6.91880  -21.46337    0.78698  -15.14492
  13.93393    6.54341  -20.71202    0.78017  -15.03486
  13.94895    6.23686  -20.00735    0.77625  -14.92585
  13.96397    5.98527  -19.35331    0.77519  -14.81757
  13.97898    5.77265  -18.75241    0.77693  -14.71018
  13.99400    5.58084  -18.20257    0.78141  -14.60338
  14.00901    5.39232  -17.69513    0.78847  -14.49733
  14.02402    5.19511  -17.21414    0.79783  -14.39194
  14.03904    4.98684  -16.74182    0.80910  -14.28685
  14.05406    4.77377  -16.26387    0.82191  -14.18154
  14.06907    4.56604  -15.77391    0.83614  -14.07511
  14.08409    4.37248  -15.27188    0.85209  -13.96668
  14.09910    4.19854  -14.76139    0.87049  -13.85522
  14.11411    4.04619  -14.24653    0.89226  -13.74035
  14.12913    3.91520  -13.73093    0.91837  -13.62162
  14.14415    3.80408  -13.21689    0.94973  -13.49904
  14.15916    3.71099  -12.70603    0.98720  -13.37230
  14.17418    3.63400  -12.19874    1.03173  -13.24127
  14.18919    3.57140  -11.69514    1.08439  -13.10572
  14.20420    3.52170  -11.19481    1.14646  -12.96535
  14.21922    3.48366  -10.69722    1.21954  -12.81980
  14.23423    3.45629  -10.20170    1.30560  -12.66890
  14.24925    3.43879   -9.70723    1.40712  -12.51260
  14.26427    3.43055   -9.21312    1.52713  -12.35089
  14.27928    3.43109   -8.71842    1.66948  -12.18443
  14.29429    3.44009   -8.22217    1.83885  -12.01449
  14.30931    3.45733   -7.72339    2.04107  -11.84322
  14.32432    3.48270   -7.22128    2.28305  -11.67484
  14.33934    3.51618   -6.71465    2.57297  -11.51579
  14.35435    3.55783   -6.20261    2.91968  -11.37676
  14.36937    3.60783   -5.68412    3.33190  -11.27404
  14.38438    3.66640   -5.15822    3.81543  -11.23150
  14.39940    3.73389   -4.62357    4.36897  -11.28226
  14.41441    3.81070   -4.07929    4.97617  -11.46777
  14.42943    3.89735   -3.52397    5.59679  -11.83099
  14.44444    3.99444   -2.95641    6.15988  -12.40039
  14.45946    4.10271   -2.37530    6.57119  -13.16575
  14.47448    4.22301   -1.77914    6.74144  -14.06021
  14.48949    4.35629   -1.16660    6.62798  -14.96920
  14.50451    4.50373   -0.53576    6.25836  -15.77295
  14.51952    4.66660    0.11487    5.71487  -16.39149
  14.53454    4.84647    0.78737    5.09388  -16.80281
  14.54955    5.04505    1.48373    4.47295  -17.02878
  14.56457    5.26440    2.20632    3.89894  -17.11090
  14.57958    5.50684    2.95723    3.39280  -17.09185
  14.59460    5.77513    3.73926    2.95842  -17.00684
  14.60961    6.07241    4.55539    2.59113  -16.88182
  14.62463    6.40242    5.40872    2.28253  -16.73463
  14.63964    6.76945    6.30251    2.02369  -16.57699
  14.65466    7.17866    7.24062    1.80617  -16.41624
  14.66967    7.63600    8.22721    1.62275  -16.25698
  14.68469    8.14870    9.26656    1.46732  -16.10186
  14.69970    8.72514   10.36342    1.33492  -15.95230
  14.71472    9.37560   11.52298    1.22149  -15.80904
  14.72973   10.11218   12.75058    1.12377  -15.67223
  14.74475   10.94978   14.05214    1.03909  -15.54187
  14.75976   11.90623   15.43314    0.96532  -15.41773
  14.77478   13.00328   16.89909    0.90072  -15.29945
  14.78979   14.26792   18.45485    0.84385  -15.18665
  14.80481   15.73283   20.10385    0.79356  -15.07904
  14.81982   17.43899   21.84727    0.74887  -14.97624
  14.83484   19.43629   23.68110    0.70900  -14.87782
  14.84985   21.78734   25.59527    0.67328  -14.78348
  14.86487   24.56818   27.56681    0.64114  -14.69298
  14.87988   27.87273   29.55524    0.61213  -14.60598
  14.89490   31.81190   31.49031    0.58586  -14.52216
  14.90991   36.51526   33.25848    0.56197  -14.44137
  14.92492   42.12000   34.67892    0.54020  -14.36333
  14.93994   48.75473   35.47770    0.52029  -14.28789
  14.95496   56.49074   35.25552    0.50204  -14.21489
  14.96997   65.26727   33.47030    0.48526  -14.14403
  14.98499   74.76073   29.46705    0.46979  -14.07526
  15.00000   84.24938   22.60855    0.45551  -14.00841
# 
# YAMBO@anomaly.roma2.infn.it x 001 CPUs * 08/29/2008  10:05 [start]
#                                          08/29/2008  10:05 [end]
# 
# Cpu Timing [Min/Max/Average]: 27s/27s/27s
#
# .-Input file : Inputs/04_alda_r_space
# | optics                       # [R OPT] Optics
# | bse                          # [R BSK] Bethe Salpeter Equation.
# | bss                          # [R BSS] Bethe Salpeter Equation solver
# | alda_fxc                     # [R TDDFT] The ALDA TDDFT kernel
# | FFTGvecs=  9987          RL  # [FFT] Plane-waves
# | BSresKmod= "x"               # [BSK] Resonant Kernel mode. (`x`;`c`;`d`)
# | % BSEBands
# |    1 | 200 |                 # [BSK] Bands range
# | %
# | BSENGexx=  9045          RL  # [BSK] Exchange components
# | BSSmod= "d"                  # [BSS] Solvers `h/d/i/t`
# | % BEnRange
# |   0.00000 | 15.00000 |   eV  # [BSS] Energy range
# | %
# | % BDmRange
# |   0.10000 |  0.10000 |   eV  # [BSS] Damping range
# | %
# | BEnSteps= 1000               # [BSS] Energy steps
# | % BLongDir
# | 0.1000E-4 | 0.000    | 0.000    |      # [BSS] [cc] Electric Field
# | %
