#  __  __   ________   ___ __ __    _______   ______        
# /_/\/_/\ /_______/\ /__//_//_/\ /_______/\ /_____/\       
# \ \ \ \ \\::: _  \ \\::\| \| \ \\::: _  \ \\:::_ \ \      
#  \:\_\ \ \\::(_)  \ \\:.      \ \\::(_)  \/_\:\ \ \ \     
#   \::::_\/ \:: __  \ \\:.\-/\  \ \\::  _  \ \\:\ \ \ \    
#     \::\ \  \:.\ \  \ \\. \  \  \ \\::(_)  \ \\:\_\ \ \   
#      \__\/   \__\/\__\/ \__\/ \__\/ \_______\/ \_____\/   
#                                                           
#             GPL Version 4.0.0 Revision 4281               
#                    MPI+OpenMP Build                       
#                http://www.yambo-code.org                  
#
# Reflectivity @ Q(1) [q->0 direction] :0.1000E-4  0.000     0.000   
#
#
# - Energies      are Teter 93(XC)+Scissor
# - Wavefunctions are Teter 93(XC)
#
# - The Green`s function is resonant -
# - Using the Length Gauge -
# - [r,Vnl] *is* included -
#
#   BSK|Identifier              :798
#      |Dimension               :69
#      |Bands                   :1 - 70
#      |Exchange           [res]: yes
#      |Correlation        [res]: yes
#      |Kernel`s coupling       : no
#      |Exchange           [cpl]: no
#      |W interaction is bare   : no
#      |Correlation        [cpl]: no
#      |ALDA kernel in R-space  : no
#      |RL vectors    [exchange]:437
#      |RL vectors [correlation]:619
#      |E/h energy range    [ev]:-1.000000 - -1.000000
#      |Coupling range     [o/o]: 100.0000 -  100.0000
#    W |Interaction is diagonal : no
#      |Matrix size             :1503
#      |Bands                   :1 - 250
#      |e/h energy range    [ev]:-1.000000 - -1.000000
#      |Poles              [o/o]: 100.0000
#      |Rl vectors in the sum   :9939
#      |[r,Vnl] included        : yes
#      |Field direction         :0.1000E-4  0.000000  0.000000
#      |Coulomb Cutoff          :none
#      |xc-Kernel               :none
#   RIM|RL components      [col]:0
#      |Random points      [col]:0
#
#  E/ev[1]    eel /Im[2] eel /Re[3] eel0/Im[4] eel0/Re[5]
#
  0.00      0.871E-11  -.986      -.247E-10  -.992    
 0.2002E-1  0.6479E-6  -.9856     0.1372E-6  -.9915   
 0.4004E-1  0.1296E-5  -.9856     0.2745E-6  -.9915   
 0.6006E-1  0.1944E-5  -.9856     0.4118E-6  -.9915   
 0.8008E-1  0.2592E-5  -.9856     0.5490E-6  -.9915   
 0.1001     0.3240E-5  -.9856     0.6863E-6  -.9915   
 0.1201     0.3889E-5  -.9856     0.8236E-6  -.9915   
 0.1401     0.4537E-5  -.9856     0.9609E-6  -.9915   
 0.1602     0.5186E-5  -.9856     0.1098E-5  -.9915   
 0.1802     0.5835E-5  -.9856     0.1236E-5  -.9915   
 0.2002     0.6485E-5  -.9856     0.1373E-5  -.9915   
 0.2202     0.7135E-5  -.9856     0.1510E-5  -.9915   
 0.2402     0.7785E-5  -.9856     0.1648E-5  -.9915   
 0.2603     0.8436E-5  -.9856     0.1785E-5  -.9915   
 0.2803     0.9087E-5  -.9856     0.1923E-5  -.9915   
 0.3003     0.9738E-5  -.9856     0.2060E-5  -.9915   
 0.3203     0.1039E-4  -.9856     0.2198E-5  -.9915   
 0.3403     0.1104E-4  -.9856     0.2335E-5  -.9915   
 0.3604     0.1170E-4  -.9856     0.2473E-5  -.9915   
 0.3804     0.1235E-4  -.9856     0.2611E-5  -.9915   
 0.4004     0.1301E-4  -.9856     0.2749E-5  -.9915   
 0.4204     0.1366E-4  -.9856     0.2886E-5  -.9915   
 0.4404     0.1432E-4  -.9856     0.3024E-5  -.9915   
 0.4605     0.1497E-4  -.9856     0.3162E-5  -.9915   
 0.4805     0.1563E-4  -.9856     0.3300E-5  -.9915   
 0.5005     0.1629E-4  -.9856     0.3438E-5  -.9915   
 0.5205     0.1695E-4  -.9856     0.3576E-5  -.9915   
 0.5405     0.1761E-4  -.9856     0.3715E-5  -.9915   
 0.5606     0.1827E-4  -.9856     0.3853E-5  -.9915   
 0.5806     0.1893E-4  -.9856     0.3991E-5  -.9915   
 0.6006     0.1960E-4  -.9856     0.4130E-5  -.9915   
 0.6206     0.2026E-4  -.9856     0.4268E-5  -.9915   
 0.6406     0.2093E-4  -.9856     0.4407E-5  -.9915   
 0.6607     0.2159E-4  -.9856     0.4545E-5  -.9915   
 0.6807     0.2226E-4  -.9856     0.4684E-5  -.9915   
 0.7007     0.2293E-4  -.9856     0.4823E-5  -.9915   
 0.7207     0.2360E-4  -.9856     0.4962E-5  -.9915   
 0.7407     0.2427E-4  -.9856     0.5101E-5  -.9915   
 0.7608     0.2494E-4  -.9856     0.5240E-5  -.9915   
 0.7808     0.2562E-4  -.9855     0.5379E-5  -.9915   
 0.8008     0.2629E-4  -.9855     0.5518E-5  -.9915   
 0.8208     0.2697E-4  -.9855     0.5658E-5  -.9915   
 0.8408     0.2765E-4  -.9855     0.5798E-5  -.9915   
 0.8609     0.2833E-4  -.9855     0.5937E-5  -.9915   
 0.8809     0.2901E-4  -.9855     0.6077E-5  -.9915   
 0.9009     0.2970E-4  -.9855     0.6217E-5  -.9915   
 0.9209     0.3038E-4  -.9855     0.6357E-5  -.9915   
 0.9409     0.3107E-4  -.9855     0.6497E-5  -.9915   
 0.9610     0.3176E-4  -.9855     0.6637E-5  -.9915   
 0.9810     0.3245E-4  -.9855     0.6778E-5  -.9915   
  1.001     0.3314E-4  -.9855     0.6918E-5  -.9915   
  1.021     0.3383E-4  -.9855     0.7059E-5  -.9915   
  1.041     0.3453E-4  -.9855     0.7200E-5  -.9915   
  1.061     0.3523E-4  -.9855     0.7341E-5  -.9915   
  1.081     0.3593E-4  -.9855     0.7482E-5  -.9915   
  1.101     0.3663E-4  -.9854     0.7623E-5  -.9915   
  1.121     0.3733E-4  -.9854     0.7764E-5  -.9915   
  1.141     0.3804E-4  -.9854     0.7906E-5  -.9915   
  1.161     0.3875E-4  -.9854     0.8048E-5  -.9915   
  1.181     0.3946E-4  -.9854     0.8190E-5  -.9915   
  1.201     0.4017E-4  -.9854     0.8332E-5  -.9915   
  1.221     0.4088E-4  -.9854     0.8474E-5  -.9915   
  1.241     0.4160E-4  -.9854     0.8616E-5  -.9915   
  1.261     0.4232E-4  -.9854     0.8759E-5  -.9915   
  1.281     0.4304E-4  -.9854     0.8901E-5  -.9915   
  1.301     0.4377E-4  -.9854     0.9044E-5  -.9915   
  1.321     0.4449E-4  -.9854     0.9187E-5  -.9915   
  1.341     0.4522E-4  -.9853     0.9330E-5  -.9915   
  1.361     0.4596E-4  -.9853     0.9474E-5  -.9915   
  1.381     0.4669E-4  -.9853     0.9617E-5  -.9915   
  1.401     0.4743E-4  -.9853     0.9761E-5  -.9915   
  1.421     0.4817E-4  -.9853     0.9905E-5  -.9915   
  1.441     0.4891E-4  -.9853     0.1005E-4  -.9915   
  1.461     0.4966E-4  -.9853     0.1019E-4  -.9915   
  1.481     0.5041E-4  -.9853     0.1034E-4  -.9915   
  1.502     0.5116E-4  -.9853     0.1048E-4  -.9914   
  1.522     0.5191E-4  -.9853     0.1063E-4  -.9914   
  1.542     0.5267E-4  -.9853     0.1077E-4  -.9914   
  1.562     0.5343E-4  -.9852     0.1092E-4  -.9914   
  1.582     0.5419E-4  -.9852     0.1106E-4  -.9914   
  1.602     0.5496E-4  -.9852     0.1121E-4  -.9914   
  1.622     0.5573E-4  -.9852     0.1136E-4  -.9914   
  1.642     0.5651E-4  -.9852     0.1150E-4  -.9914   
  1.662     0.5728E-4  -.9852     0.1165E-4  -.9914   
  1.682     0.5806E-4  -.9852     0.1180E-4  -.9914   
  1.702     0.5885E-4  -.9852     0.1194E-4  -.9914   
  1.722     0.5963E-4  -.9851     0.1209E-4  -.9914   
  1.742     0.6043E-4  -.9851     0.1224E-4  -.9914   
  1.762     0.6122E-4  -.9851     0.1239E-4  -.9914   
  1.782     0.6202E-4  -.9851     0.1253E-4  -.9914   
  1.802     0.6282E-4  -.9851     0.1268E-4  -.9914   
  1.822     0.6363E-4  -.9851     0.1283E-4  -.9914   
  1.842     0.6444E-4  -.9851     0.1298E-4  -.9914   
  1.862     0.6525E-4  -.9851     0.1313E-4  -.9914   
  1.882     0.6607E-4  -.9850     0.1328E-4  -.9914   
  1.902     0.6689E-4  -.9850     0.1343E-4  -.9914   
  1.922     0.6771E-4  -.9850     0.1358E-4  -.9914   
  1.942     0.6855E-4  -.9850     0.1373E-4  -.9914   
  1.962     0.6938E-4  -.9850     0.1388E-4  -.9914   
  1.982     0.7022E-4  -.9850     0.1403E-4  -.9914   
  2.002     0.7106E-4  -.9850     0.1418E-4  -.9914   
  2.022     0.7191E-4  -.9850     0.1433E-4  -.9914   
  2.042     0.7276E-4  -.9849     0.1448E-4  -.9914   
  2.062     0.7361E-4  -.9849     0.1463E-4  -.9914   
  2.082     0.7448E-4  -.9849     0.1478E-4  -.9914   
  2.102     0.7534E-4  -.9849     0.1494E-4  -.9914   
  2.122     0.7621E-4  -.9849     0.1509E-4  -.9914   
  2.142     0.7709E-4  -.9849     0.1524E-4  -.9914   
  2.162     0.7797E-4  -.9849     0.1540E-4  -.9914   
  2.182     0.7885E-4  -.9848     0.1555E-4  -.9914   
  2.202     0.7974E-4  -.9848     0.1570E-4  -.9914   
  2.222     0.8064E-4  -.9848     0.1586E-4  -.9914   
  2.242     0.8154E-4  -.9848     0.1601E-4  -.9913   
  2.262     0.8244E-4  -.9848     0.1617E-4  -.9914   
  2.282     0.8335E-4  -.9848     0.1632E-4  -.9913   
  2.302     0.8427E-4  -.9847     0.1648E-4  -.9913   
  2.322     0.8519E-4  -.9847     0.1663E-4  -.9913   
  2.342     0.8612E-4  -.9847     0.1679E-4  -.9913   
  2.362     0.8705E-4  -.9847     0.1695E-4  -.9913   
  2.382     0.8799E-4  -.9847     0.1710E-4  -.9913   
  2.402     0.8893E-4  -.9847     0.1726E-4  -.9913   
  2.422     0.8988E-4  -.9846     0.1742E-4  -.9913   
  2.442     0.9084E-4  -.9846     0.1758E-4  -.9913   
  2.462     0.9180E-4  -.9846     0.1774E-4  -.9913   
  2.482     0.9277E-4  -.9846     0.1789E-4  -.9913   
  2.503     0.9374E-4  -.9846     0.1805E-4  -.9913   
  2.523     0.9472E-4  -.9845     0.1821E-4  -.9913   
  2.543     0.9571E-4  -.9845     0.1837E-4  -.9913   
  2.563     0.9670E-4  -.9845     0.1853E-4  -.9913   
  2.583     0.9770E-4  -.9845     0.1869E-4  -.9913   
  2.603     0.9871E-4  -.9845     0.1886E-4  -.9913   
  2.623     0.9972E-4  -.9844     0.1902E-4  -.9913   
  2.643     0.1007E-3  -.9844     0.1918E-4  -.9913   
  2.663     0.1018E-3  -.9844     0.1934E-4  -.9913   
  2.683     0.1028E-3  -.9844     0.1950E-4  -.9913   
  2.703     0.1038E-3  -.9844     0.1967E-4  -.9913   
  2.723     0.1049E-3  -.9843     0.1983E-4  -.9913   
  2.743     0.1060E-3  -.9843     0.1999E-4  -.9913   
  2.763     0.1070E-3  -.9843     0.2016E-4  -.9913   
  2.783     0.1081E-3  -.9843     0.2032E-4  -.9913   
  2.803     0.1092E-3  -.9843     0.2049E-4  -.9913   
  2.823     0.1103E-3  -.9842     0.2065E-4  -.9913   
  2.843     0.1113E-3  -.9842     0.2082E-4  -.9912   
  2.863     0.1124E-3  -.9842     0.2099E-4  -.9912   
  2.883     0.1136E-3  -.9842     0.2115E-4  -.9912   
  2.903     0.1147E-3  -.9841     0.2132E-4  -.9912   
  2.923     0.1158E-3  -.9841     0.2149E-4  -.9912   
  2.943     0.1169E-3  -.9841     0.2166E-4  -.9912   
  2.963     0.1181E-3  -.9841     0.2183E-4  -.9912   
  2.983     0.1192E-3  -.9840     0.2200E-4  -.9912   
  3.003     0.1204E-3  -.9840     0.2217E-4  -.9912   
  3.023     0.1216E-3  -.9840     0.2234E-4  -.9912   
  3.043     0.1227E-3  -.9840     0.2251E-4  -.9912   
  3.063     0.1239E-3  -.9839     0.2268E-4  -.9912   
  3.083     0.1251E-3  -.9839     0.2285E-4  -.9912   
  3.103     0.1263E-3  -.9839     0.2302E-4  -.9912   
  3.123     0.1276E-3  -.9839     0.2319E-4  -.9912   
  3.143     0.1288E-3  -.9839     0.2337E-4  -.9912   
  3.163     0.1300E-3  -.9838     0.2354E-4  -.9912   
  3.183     0.1313E-3  -.9838     0.2371E-4  -.9912   
  3.203     0.1325E-3  -.9838     0.2389E-4  -.9912   
  3.223     0.1338E-3  -.9837     0.2407E-4  -.9912   
  3.243     0.1351E-3  -.9837     0.2424E-4  -.9912   
  3.263     0.1363E-3  -.9837     0.2442E-4  -.9912   
  3.283     0.1376E-3  -.9837     0.2459E-4  -.9911   
  3.303     0.1390E-3  -.9836     0.2477E-4  -.9911   
  3.323     0.1403E-3  -.9836     0.2495E-4  -.9911   
  3.343     0.1416E-3  -.9836     0.2513E-4  -.9911   
  3.363     0.1429E-3  -.9836     0.2531E-4  -.9911   
  3.383     0.1443E-3  -.9835     0.2549E-4  -.9911   
  3.403     0.1457E-3  -.9835     0.2567E-4  -.9911   
  3.423     0.1470E-3  -.9835     0.2585E-4  -.9911   
  3.443     0.1484E-3  -.9834     0.2603E-4  -.9911   
  3.463     0.1498E-3  -.9834     0.2621E-4  -.9911   
  3.483     0.1512E-3  -.9834     0.2639E-4  -.9911   
  3.504     0.1527E-3  -.9833     0.2658E-4  -.9911   
  3.524     0.1541E-3  -.9833     0.2676E-4  -.9911   
  3.544     0.1556E-3  -.9833     0.2694E-4  -.9911   
  3.564     0.1570E-3  -.9832     0.2713E-4  -.9911   
  3.584     0.1585E-3  -.9832     0.2731E-4  -.9911   
  3.604     0.1600E-3  -.9832     0.2750E-4  -.9911   
  3.624     0.1615E-3  -.9832     0.2769E-4  -.9911   
  3.644     0.1630E-3  -.9831     0.2787E-4  -.9911   
  3.664     0.1645E-3  -.9831     0.2806E-4  -.9910   
  3.684     0.1661E-3  -.9831     0.2825E-4  -.9910   
  3.704     0.1677E-3  -.9830     0.2844E-4  -.9910   
  3.724     0.1692E-3  -.9830     0.2863E-4  -.9910   
  3.744     0.1708E-3  -.9830     0.2882E-4  -.9910   
  3.764     0.1724E-3  -.9829     0.2901E-4  -.9910   
  3.784     0.1740E-3  -.9829     0.2920E-4  -.9910   
  3.804     0.1757E-3  -.9829     0.2940E-4  -.9910   
  3.824     0.1773E-3  -.9828     0.2959E-4  -.9910   
  3.844     0.1790E-3  -.9828     0.2978E-4  -.9910   
  3.864     0.1807E-3  -.9827     0.2998E-4  -.9910   
  3.884     0.1824E-3  -.9827     0.3017E-4  -.9910   
  3.904     0.1841E-3  -.9827     0.3037E-4  -.9910   
  3.924     0.1858E-3  -.9826     0.3057E-4  -.9910   
  3.944     0.1876E-3  -.9826     0.3076E-4  -.9910   
  3.964     0.1894E-3  -.9826     0.3096E-4  -.9910   
  3.984     0.1912E-3  -.9825     0.3116E-4  -.9910   
  4.004     0.1930E-3  -.9825     0.3136E-4  -.9909   
  4.024     0.1948E-3  -.9824     0.3156E-4  -.9909   
  4.044     0.1966E-3  -.9824     0.3176E-4  -.9909   
  4.064     0.1985E-3  -.9824     0.3196E-4  -.9909   
  4.084     0.2004E-3  -.9823     0.3217E-4  -.9909   
  4.104     0.2023E-3  -.9823     0.3237E-4  -.9909   
  4.124     0.2042E-3  -.9822     0.3257E-4  -.9909   
  4.144     0.2061E-3  -.9822     0.3278E-4  -.9909   
  4.164     0.2081E-3  -.9822     0.3299E-4  -.9909   
  4.184     0.2101E-3  -.9821     0.3319E-4  -.9909   
  4.204     0.2121E-3  -.9821     0.3340E-4  -.9909   
  4.224     0.2141E-3  -.9820     0.3361E-4  -.9909   
  4.244     0.2161E-3  -.9820     0.3382E-4  -.9909   
  4.264     0.2182E-3  -.9819     0.3403E-4  -.9909   
  4.284     0.2203E-3  -.9819     0.3424E-4  -.9909   
  4.304     0.2224E-3  -.9819     0.3445E-4  -.9909   
  4.324     0.2246E-3  -.9818     0.3466E-4  -.9908   
  4.344     0.2267E-3  -.9818     0.3487E-4  -.9908   
  4.364     0.2289E-3  -.9817     0.3509E-4  -.9908   
  4.384     0.2311E-3  -.9817     0.3530E-4  -.9908   
  4.404     0.2333E-3  -.9816     0.3552E-4  -.9908   
  4.424     0.2356E-3  -.9816     0.3573E-4  -.9908   
  4.444     0.2379E-3  -.9815     0.3595E-4  -.9908   
  4.464     0.2402E-3  -.9815     0.3617E-4  -.9908   
  4.484     0.2425E-3  -.9814     0.3639E-4  -.9908   
  4.505     0.2449E-3  -.9814     0.3661E-4  -.9908   
  4.525     0.2473E-3  -.9813     0.3683E-4  -.9908   
  4.545     0.2497E-3  -.9813     0.3705E-4  -.9908   
  4.565     0.2522E-3  -.9812     0.3727E-4  -.9908   
  4.585     0.2546E-3  -.9812     0.3750E-4  -.9907   
  4.605     0.2571E-3  -.9811     0.3772E-4  -.9907   
  4.625     0.2597E-3  -.9811     0.3795E-4  -.9907   
  4.645     0.2622E-3  -.9810     0.3818E-4  -.9907   
  4.665     0.2648E-3  -.9810     0.3840E-4  -.9907   
  4.685     0.2675E-3  -.9809     0.3863E-4  -.9907   
  4.705     0.2701E-3  -.9809     0.3886E-4  -.9907   
  4.725     0.2728E-3  -.9808     0.3909E-4  -.9907   
  4.745     0.2755E-3  -.9808     0.3932E-4  -.9907   
  4.765     0.2783E-3  -.9807     0.3955E-4  -.9907   
  4.785     0.2811E-3  -.9807     0.3979E-4  -.9907   
  4.805     0.2839E-3  -.9806     0.4002E-4  -.9907   
  4.825     0.2868E-3  -.9805     0.4026E-4  -.9907   
  4.845     0.2897E-3  -.9805     0.4050E-4  -.9906   
  4.865     0.2926E-3  -.9804     0.4073E-4  -.9906   
  4.885     0.2956E-3  -.9804     0.4097E-4  -.9906   
  4.905     0.2986E-3  -.9803     0.4121E-4  -.9906   
  4.925     0.3016E-3  -.9803     0.4145E-4  -.9906   
  4.945     0.3047E-3  -.9802     0.4169E-4  -.9906   
  4.965     0.3079E-3  -.9801     0.4194E-4  -.9906   
  4.985     0.3110E-3  -.9801     0.4218E-4  -.9906   
  5.005     0.3142E-3  -.9800     0.4243E-4  -.9906   
  5.025     0.3175E-3  -.9799     0.4267E-4  -.9906   
  5.045     0.3208E-3  -.9799     0.4292E-4  -.9906   
  5.065     0.3241E-3  -.9798     0.4317E-4  -.9906   
  5.085     0.3275E-3  -.9798     0.4342E-4  -.9905   
  5.105     0.3310E-3  -.9797     0.4367E-4  -.9905   
  5.125     0.3344E-3  -.9796     0.4392E-4  -.9905   
  5.145     0.3380E-3  -.9796     0.4417E-4  -.9905   
  5.165     0.3415E-3  -.9795     0.4443E-4  -.9905   
  5.185     0.3451E-3  -.9794     0.4468E-4  -.9905   
  5.205     0.3488E-3  -.9793     0.4494E-4  -.9905   
  5.225     0.3525E-3  -.9793     0.4520E-4  -.9905   
  5.245     0.3563E-3  -.9792     0.4546E-4  -.9905   
  5.265     0.3601E-3  -.9791     0.4572E-4  -.9905   
  5.285     0.3640E-3  -.9791     0.4598E-4  -.9905   
  5.305     0.3680E-3  -.9790     0.4624E-4  -.9905   
  5.325     0.3720E-3  -.9789     0.4651E-4  -.9904   
  5.345     0.3760E-3  -.9788     0.4677E-4  -.9904   
  5.365     0.3801E-3  -.9788     0.4704E-4  -.9904   
  5.385     0.3843E-3  -.9787     0.4731E-4  -.9904   
  5.405     0.3885E-3  -.9786     0.4758E-4  -.9904   
  5.425     0.3928E-3  -.9785     0.4785E-4  -.9904   
  5.445     0.3972E-3  -.9785     0.4812E-4  -.9904   
  5.465     0.4016E-3  -.9784     0.4839E-4  -.9904   
  5.485     0.4061E-3  -.9783     0.4867E-4  -.9904   
  5.506     0.4106E-3  -.9782     0.4894E-4  -.9903   
  5.526     0.4153E-3  -.9781     0.4922E-4  -.9903   
  5.546     0.4199E-3  -.9781     0.4950E-4  -.9903   
  5.566     0.4247E-3  -.9780     0.4978E-4  -.9903   
  5.586     0.4295E-3  -.9779     0.5006E-4  -.9903   
  5.606     0.4345E-3  -.9778     0.5035E-4  -.9903   
  5.626     0.4394E-3  -.9777     0.5063E-4  -.9903   
  5.646     0.4445E-3  -.9776     0.5092E-4  -.9903   
  5.666     0.4497E-3  -.9775     0.5121E-4  -.9903   
  5.686     0.4549E-3  -.9774     0.5149E-4  -.9903   
  5.706     0.4602E-3  -.9773     0.5178E-4  -.9903   
  5.726     0.4656E-3  -.9773     0.5208E-4  -.9902   
  5.746     0.4711E-3  -.9772     0.5237E-4  -.9902   
  5.766     0.4766E-3  -.9771     0.5266E-4  -.9902   
  5.786     0.4823E-3  -.9770     0.5296E-4  -.9902   
  5.806     0.4881E-3  -.9769     0.5326E-4  -.9902   
  5.826     0.4939E-3  -.9768     0.5356E-4  -.9902   
  5.846     0.4998E-3  -.9767     0.5386E-4  -.9902   
  5.866     0.5059E-3  -.9766     0.5416E-4  -.9902   
  5.886     0.5120E-3  -.9765     0.5447E-4  -.9902   
  5.906     0.5183E-3  -.9764     0.5477E-4  -.9902   
  5.926     0.5246E-3  -.9763     0.5508E-4  -.9901   
  5.946     0.5311E-3  -.9762     0.5539E-4  -.9901   
  5.966     0.5377E-3  -.9761     0.5570E-4  -.9901   
  5.986     0.5444E-3  -.9759     0.5601E-4  -.9901   
  6.006     0.5512E-3  -.9758     0.5633E-4  -.9901   
  6.026     0.5581E-3  -.9757     0.5665E-4  -.9901   
  6.046     0.5651E-3  -.9756     0.5696E-4  -.9901   
  6.066     0.5723E-3  -.9755     0.5728E-4  -.9901   
  6.086     0.5796E-3  -.9754     0.5760E-4  -.9901   
  6.106     0.5870E-3  -.9753     0.5793E-4  -.9900   
  6.126     0.5946E-3  -.9751     0.5825E-4  -.9900   
  6.146     0.6023E-3  -.9750     0.5858E-4  -.9900   
  6.166     0.6101E-3  -.9749     0.5891E-4  -.9900   
  6.186     0.6181E-3  -.9748     0.5924E-4  -.9900   
  6.206     0.6262E-3  -.9747     0.5957E-4  -.9900   
  6.226     0.6345E-3  -.9745     0.5990E-4  -.9900   
  6.246     0.6430E-3  -.9744     0.6024E-4  -.9900   
  6.266     0.6516E-3  -.9743     0.6058E-4  -.9899   
  6.286     0.6603E-3  -.9742     0.6092E-4  -.9899   
  6.306     0.6693E-3  -.9740     0.6126E-4  -.9899   
  6.326     0.6784E-3  -.9739     0.6160E-4  -.9899   
  6.346     0.6876E-3  -.9737     0.6195E-4  -.9899   
  6.366     0.6971E-3  -.9736     0.6230E-4  -.9899   
  6.386     0.7067E-3  -.9735     0.6265E-4  -.9899   
  6.406     0.7166E-3  -.9733     0.6300E-4  -.9899   
  6.426     0.7266E-3  -.9732     0.6335E-4  -.9898   
  6.446     0.7368E-3  -.9730     0.6371E-4  -.9898   
  6.466     0.7473E-3  -.9729     0.6406E-4  -.9898   
  6.486     0.7579E-3  -.9727     0.6442E-4  -.9898   
  6.507     0.7688E-3  -.9726     0.6479E-4  -.9898   
  6.527     0.7799E-3  -.9724     0.6515E-4  -.9898   
  6.547     0.7912E-3  -.9723     0.6552E-4  -.9898   
  6.567     0.8028E-3  -.9721     0.6589E-4  -.9897   
  6.587     0.8146E-3  -.9720     0.6626E-4  -.9897   
  6.607     0.8267E-3  -.9718     0.6663E-4  -.9897   
  6.627     0.8390E-3  -.9716     0.6700E-4  -.9897   
  6.647     0.8516E-3  -.9715     0.6738E-4  -.9897   
  6.667     0.8644E-3  -.9713     0.6776E-4  -.9897   
  6.687     0.8775E-3  -.9711     0.6814E-4  -.9897   
  6.707     0.8910E-3  -.9709     0.6853E-4  -.9897   
  6.727     0.9047E-3  -.9708     0.6891E-4  -.9896   
  6.747     0.9187E-3  -.9706     0.6930E-4  -.9896   
  6.767     0.9331E-3  -.9704     0.6969E-4  -.9896   
  6.787     0.9477E-3  -.9702     0.7009E-4  -.9896   
  6.807     0.9627E-3  -.9700     0.7048E-4  -.9896   
  6.827     0.9781E-3  -.9698     0.7088E-4  -.9896   
  6.847     0.9938E-3  -.9696     0.7128E-4  -.9896   
  6.867     0.1010E-2  -.9694     0.7169E-4  -.9895   
  6.887     0.1026E-2  -.9692     0.7209E-4  -.9895   
  6.907     0.1043E-2  -.9690     0.7250E-4  -.9895   
  6.927     0.1060E-2  -.9688     0.7291E-4  -.9895   
  6.947     0.1078E-2  -.9686     0.7333E-4  -.9895   
  6.967     0.1096E-2  -.9684     0.7375E-4  -.9895   
  6.987     0.1115E-2  -.9681     0.7416E-4  -.9895   
  7.007     0.1134E-2  -.9679     0.7459E-4  -.9894   
  7.027     0.1153E-2  -.9677     0.7501E-4  -.9894   
  7.047     0.1173E-2  -.9675     0.7544E-4  -.9894   
  7.067     0.1194E-2  -.9672     0.7587E-4  -.9894   
  7.087     0.1215E-2  -.9670     0.7630E-4  -.9894   
  7.107     0.1236E-2  -.9667     0.7674E-4  -.9894   
  7.127     0.1258E-2  -.9665     0.7717E-4  -.9894   
  7.147     0.1281E-2  -.9662     0.7761E-4  -.9893   
  7.167     0.1305E-2  -.9660     0.7806E-4  -.9893   
  7.187     0.1328E-2  -.9657     0.7851E-4  -.9893   
  7.207     0.1353E-2  -.9655     0.7896E-4  -.9893   
  7.227     0.1378E-2  -.9652     0.7941E-4  -.9893   
  7.247     0.1404E-2  -.9649     0.7987E-4  -.9893   
  7.267     0.1431E-2  -.9646     0.8032E-4  -.9892   
  7.287     0.1458E-2  -.9643     0.8078E-4  -.9892   
  7.307     0.1487E-2  -.9640     0.8125E-4  -.9892   
  7.327     0.1516E-2  -.9637     0.8172E-4  -.9892   
  7.347     0.1546E-2  -.9634     0.8219E-4  -.9892   
  7.367     0.1576E-2  -.9631     0.8266E-4  -.9892   
  7.387     0.1608E-2  -.9628     0.8314E-4  -.9891   
  7.407     0.1640E-2  -.9625     0.8362E-4  -.9891   
  7.427     0.1674E-2  -.9622     0.8411E-4  -.9891   
  7.447     0.1709E-2  -.9618     0.8459E-4  -.9891   
  7.467     0.1744E-2  -.9615     0.8508E-4  -.9891   
  7.487     0.1781E-2  -.9611     0.8558E-4  -.9891   
  7.508     0.1819E-2  -.9608     0.8608E-4  -.9890   
  7.528     0.1858E-2  -.9604     0.8658E-4  -.9890   
  7.548     0.1898E-2  -.9600     0.8708E-4  -.9890   
  7.568     0.1940E-2  -.9597     0.8759E-4  -.9890   
  7.588     0.1983E-2  -.9593     0.8810E-4  -.9890   
  7.608     0.2028E-2  -.9589     0.8862E-4  -.9890   
  7.628     0.2074E-2  -.9585     0.8913E-4  -.9889   
  7.648     0.2121E-2  -.9580     0.8966E-4  -.9889   
  7.668     0.2170E-2  -.9576     0.9018E-4  -.9889   
  7.688     0.2221E-2  -.9572     0.9071E-4  -.9889   
  7.708     0.2274E-2  -.9567     0.9124E-4  -.9889   
  7.728     0.2328E-2  -.9563     0.9178E-4  -.9889   
  7.748     0.2385E-2  -.9558     0.9232E-4  -.9888   
  7.768     0.2443E-2  -.9553     0.9287E-4  -.9888   
  7.788     0.2504E-2  -.9548     0.9342E-4  -.9888   
  7.808     0.2567E-2  -.9543     0.9397E-4  -.9888   
  7.828     0.2632E-2  -.9538     0.9453E-4  -.9888   
  7.848     0.2700E-2  -.9533     0.9509E-4  -.9887   
  7.868     0.2770E-2  -.9527     0.9565E-4  -.9887   
  7.888     0.2844E-2  -.9522     0.9622E-4  -.9887   
  7.908     0.2920E-2  -.9516     0.9679E-4  -.9887   
  7.928     0.2999E-2  -.9510     0.9737E-4  -.9887   
  7.948     0.3081E-2  -.9504     0.9795E-4  -.9886   
  7.968     0.3167E-2  -.9498     0.9854E-4  -.9886   
  7.988     0.3256E-2  -.9492     0.9913E-4  -.9886   
  8.008     0.3349E-2  -.9485     0.9972E-4  -.9886   
  8.028     0.3447E-2  -.9478     0.1003E-3  -.9886   
  8.048     0.3548E-2  -.9472     0.1009E-3  -.9885   
  8.068     0.3654E-2  -.9464     0.1015E-3  -.9885   
  8.088     0.3765E-2  -.9457     0.1021E-3  -.9885   
  8.108     0.3880E-2  -.9450     0.1028E-3  -.9885   
  8.128     0.4002E-2  -.9442     0.1034E-3  -.9885   
  8.148     0.4128E-2  -.9434     0.1040E-3  -.9884   
  8.168     0.4261E-2  -.9425     0.1046E-3  -.9884   
  8.188     0.4401E-2  -.9417     0.1053E-3  -.9884   
  8.208     0.4547E-2  -.9408     0.1059E-3  -.9884   
  8.228     0.4701E-2  -.9399     0.1066E-3  -.9884   
  8.248     0.4862E-2  -.9390     0.1072E-3  -.9883   
  8.268     0.5032E-2  -.9380     0.1079E-3  -.9883   
  8.288     0.5211E-2  -.9370     0.1085E-3  -.9883   
  8.308     0.5400E-2  -.9359     0.1092E-3  -.9883   
  8.328     0.5599E-2  -.9348     0.1099E-3  -.9883   
  8.348     0.5809E-2  -.9337     0.1105E-3  -.9882   
  8.368     0.6031E-2  -.9326     0.1112E-3  -.9882   
  8.388     0.6266E-2  -.9314     0.1119E-3  -.9882   
  8.408     0.6514E-2  -.9301     0.1126E-3  -.9882   
  8.428     0.6778E-2  -.9288     0.1133E-3  -.9881   
  8.448     0.7058E-2  -.9274     0.1140E-3  -.9881   
  8.468     0.7356E-2  -.9260     0.1147E-3  -.9881   
  8.488     0.7672E-2  -.9246     0.1154E-3  -.9881   
  8.509     0.8010E-2  -.9230     0.1162E-3  -.9881   
  8.529     0.8370E-2  -.9214     0.1169E-3  -.9880   
  8.549     0.8754E-2  -.9198     0.1176E-3  -.9880   
  8.569     0.9166E-2  -.9180     0.1184E-3  -.9880   
  8.589     0.9607E-2  -.9162     0.1191E-3  -.9880   
  8.609     0.1008E-1  -.9143     0.1199E-3  -.9879   
  8.629     0.1059E-1  -.9123     0.1206E-3  -.9879   
  8.649     0.1114E-1  -.9102     0.1214E-3  -.9879   
  8.669     0.1173E-1  -.9080     0.1221E-3  -.9879   
  8.689     0.1237E-1  -.9056     0.1229E-3  -.9878   
  8.709     0.1306E-1  -.9032     0.1237E-3  -.9878   
  8.729     0.1381E-1  -.9006     0.1245E-3  -.9878   
  8.749     0.1463E-1  -.8979     0.1253E-3  -.9878   
  8.769     0.1553E-1  -.8950     0.1261E-3  -.9877   
  8.789     0.1650E-1  -.8920     0.1269E-3  -.9877   
  8.809     0.1757E-1  -.8887     0.1277E-3  -.9877   
  8.829     0.1875E-1  -.8853     0.1285E-3  -.9877   
  8.849     0.2005E-1  -.8816     0.1294E-3  -.9876   
  8.869     0.2148E-1  -.8777     0.1302E-3  -.9876   
  8.889     0.2308E-1  -.8736     0.1310E-3  -.9876   
  8.909     0.2485E-1  -.8691     0.1319E-3  -.9876   
  8.929     0.2683E-1  -.8644     0.1327E-3  -.9875   
  8.949     0.2906E-1  -.8592     0.1336E-3  -.9875   
  8.969     0.3157E-1  -.8537     0.1345E-3  -.9875   
  8.989     0.3442E-1  -.8478     0.1354E-3  -.9874   
  9.009     0.3766E-1  -.8413     0.1363E-3  -.9874   
  9.029     0.4137E-1  -.8343     0.1371E-3  -.9874   
  9.049     0.4564E-1  -.8268     0.1381E-3  -.9874   
  9.069     0.5059E-1  -.8185     0.1390E-3  -.9873   
  9.089     0.5636E-1  -.8095     0.1399E-3  -.9873   
  9.109     0.6314E-1  -.7997     0.1408E-3  -.9873   
  9.129     0.7117E-1  -.7890     0.1418E-3  -.9873   
  9.149     0.8076E-1  -.7772     0.1427E-3  -.9872   
  9.169     0.9231E-1  -.7644     0.1436E-3  -.9872   
  9.189     0.1064     -.7505     0.1446E-3  -.9872   
  9.209     0.1236     -.7354     0.1456E-3  -.9871   
  9.229     0.1451     -.7195     0.1466E-3  -.9871   
  9.249     0.1719     -.7029     0.1475E-3  -.9871   
  9.269     0.2059     -.6867     0.1485E-3  -.9871   
  9.289     0.2489     -.6722     0.1496E-3  -.9870   
  9.309     0.3031     -.6622     0.1506E-3  -.9870   
  9.329     0.3698     -.6615     0.1516E-3  -.9870   
  9.349     0.4480     -.6779     0.1526E-3  -.9869   
  9.369     0.5327     -.7224     0.1537E-3  -.9869   
  9.389     0.6112     -.8038     0.1547E-3  -.9869   
  9.409     0.6624     -.9205     0.1558E-3  -.9868   
  9.429     0.6664     -1.054     0.1569E-3  -.9868   
  9.449     0.6212     -1.174     0.1579E-3  -.9868   
  9.469     0.5441     -1.261     0.1590E-3  -.9867   
  9.489     0.4577     -1.311     0.1601E-3  -.9867   
  9.510     0.3772     -1.331     0.1613E-3  -.9867   
  9.530     0.3090     -1.333     0.1624E-3  -.9867   
  9.550     0.2538     -1.323     0.1635E-3  -.9866   
  9.570     0.2100     -1.309     0.1647E-3  -.9866   
  9.590     0.1753     -1.292     0.1658E-3  -.9866   
  9.610     0.1479     -1.276     0.1670E-3  -.9865   
  9.630     0.1259     -1.259     0.1682E-3  -.9865   
  9.650     0.1082     -1.244     0.1694E-3  -.9865   
  9.670     0.9385E-1  -1.230     0.1706E-3  -.9864   
  9.690     0.8203E-1  -1.217     0.1718E-3  -.9864   
  9.710     0.7224E-1  -1.205     0.1730E-3  -.9864   
  9.730     0.6404E-1  -1.194     0.1742E-3  -.9863   
  9.750     0.5712E-1  -1.184     0.1755E-3  -.9863   
  9.770     0.5124E-1  -1.175     0.1768E-3  -.9862   
  9.790     0.4620E-1  -1.167     0.1780E-3  -.9862   
  9.810     0.4185E-1  -1.159     0.1793E-3  -.9862   
  9.830     0.3808E-1  -1.152     0.1806E-3  -.9861   
  9.850     0.3479E-1  -1.146     0.1819E-3  -.9861   
  9.870     0.3190E-1  -1.140     0.1833E-3  -.9861   
  9.890     0.2935E-1  -1.134     0.1846E-3  -.9860   
  9.910     0.2709E-1  -1.129     0.1860E-3  -.9860   
  9.930     0.2508E-1  -1.124     0.1873E-3  -.9860   
  9.950     0.2328E-1  -1.120     0.1887E-3  -.9859   
  9.970     0.2167E-1  -1.115     0.1901E-3  -.9859   
  9.990     0.2021E-1  -1.112     0.1915E-3  -.9858   
  10.01     0.1890E-1  -1.108     0.1930E-3  -.9858   
  10.03     0.1771E-1  -1.104     0.1944E-3  -.9858   
  10.05     0.1663E-1  -1.101     0.1959E-3  -.9857   
  10.07     0.1564E-1  -1.098     0.1973E-3  -.9857   
  10.09     0.1474E-1  -1.095     0.1988E-3  -.9857   
  10.11     0.1391E-1  -1.092     0.2003E-3  -.9856   
  10.13     0.1315E-1  -1.090     0.2018E-3  -.9856   
  10.15     0.1245E-1  -1.087     0.2034E-3  -.9855   
  10.17     0.1181E-1  -1.085     0.2049E-3  -.9855   
  10.19     0.1121E-1  -1.083     0.2065E-3  -.9854   
  10.21     0.1066E-1  -1.081     0.2081E-3  -.9854   
  10.23     0.1014E-1  -1.079     0.2097E-3  -.9854   
  10.25     0.9666E-2  -1.077     0.2113E-3  -.9853   
  10.27     0.9221E-2  -1.075     0.2130E-3  -.9853   
  10.29     0.8806E-2  -1.073     0.2146E-3  -.9852   
  10.31     0.8418E-2  -1.072     0.2163E-3  -.9852   
  10.33     0.8056E-2  -1.070     0.2180E-3  -.9852   
  10.35     0.7716E-2  -1.068     0.2197E-3  -.9851   
  10.37     0.7397E-2  -1.067     0.2214E-3  -.9851   
  10.39     0.7097E-2  -1.065     0.2232E-3  -.9850   
  10.41     0.6815E-2  -1.064     0.2249E-3  -.9850   
  10.43     0.6550E-2  -1.063     0.2267E-3  -.9849   
  10.45     0.6299E-2  -1.062     0.2285E-3  -.9849   
  10.47     0.6063E-2  -1.060     0.2304E-3  -.9848   
  10.49     0.5839E-2  -1.059     0.2322E-3  -.9848   
  10.51     0.5628E-2  -1.058     0.2341E-3  -.9847   
  10.53     0.5428E-2  -1.057     0.2360E-3  -.9847   
  10.55     0.5238E-2  -1.056     0.2379E-3  -.9847   
  10.57     0.5058E-2  -1.055     0.2398E-3  -.9846   
  10.59     0.4888E-2  -1.054     0.2418E-3  -.9846   
  10.61     0.4725E-2  -1.053     0.2438E-3  -.9845   
  10.63     0.4571E-2  -1.052     0.2458E-3  -.9845   
  10.65     0.4424E-2  -1.051     0.2478E-3  -.9844   
  10.67     0.4283E-2  -1.050     0.2499E-3  -.9844   
  10.69     0.4150E-2  -1.049     0.2520E-3  -.9843   
  10.71     0.4022E-2  -1.049     0.2541E-3  -.9843   
  10.73     0.3901E-2  -1.048     0.2562E-3  -.9842   
  10.75     0.3784E-2  -1.047     0.2583E-3  -.9842   
  10.77     0.3673E-2  -1.046     0.2605E-3  -.9841   
  10.79     0.3567E-2  -1.046     0.2627E-3  -.9841   
  10.81     0.3465E-2  -1.045     0.2650E-3  -.9840   
  10.83     0.3367E-2  -1.044     0.2672E-3  -.9839   
  10.85     0.3274E-2  -1.044     0.2695E-3  -.9839   
  10.87     0.3184E-2  -1.043     0.2718E-3  -.9838   
  10.89     0.3098E-2  -1.042     0.2742E-3  -.9838   
  10.91     0.3015E-2  -1.042     0.2766E-3  -.9837   
  10.93     0.2936E-2  -1.041     0.2790E-3  -.9837   
  10.95     0.2860E-2  -1.041     0.2814E-3  -.9836   
  10.97     0.2786E-2  -1.040     0.2839E-3  -.9836   
  10.99     0.2716E-2  -1.039     0.2864E-3  -.9835   
  11.01     0.2648E-2  -1.039     0.2889E-3  -.9835   
  11.03     0.2582E-2  -1.038     0.2914E-3  -.9834   
  11.05     0.2519E-2  -1.038     0.2940E-3  -.9833   
  11.07     0.2458E-2  -1.037     0.2967E-3  -.9833   
  11.09     0.2400E-2  -1.037     0.2993E-3  -.9832   
  11.11     0.2343E-2  -1.036     0.3020E-3  -.9832   
  11.13     0.2288E-2  -1.036     0.3048E-3  -.9831   
  11.15     0.2236E-2  -1.036     0.3075E-3  -.9830   
  11.17     0.2185E-2  -1.035     0.3103E-3  -.9830   
  11.19     0.2135E-2  -1.035     0.3132E-3  -.9829   
  11.21     0.2088E-2  -1.034     0.3160E-3  -.9829   
  11.23     0.2042E-2  -1.034     0.3190E-3  -.9828   
  11.25     0.1997E-2  -1.033     0.3219E-3  -.9827   
  11.27     0.1954E-2  -1.033     0.3249E-3  -.9827   
  11.29     0.1912E-2  -1.033     0.3279E-3  -.9826   
  11.31     0.1872E-2  -1.032     0.3310E-3  -.9825   
  11.33     0.1833E-2  -1.032     0.3341E-3  -.9825   
  11.35     0.1795E-2  -1.032     0.3373E-3  -.9824   
  11.37     0.1758E-2  -1.031     0.3405E-3  -.9823   
  11.39     0.1722E-2  -1.031     0.3438E-3  -.9823   
  11.41     0.1688E-2  -1.031     0.3471E-3  -.9822   
  11.43     0.1654E-2  -1.030     0.3504E-3  -.9821   
  11.45     0.1622E-2  -1.030     0.3538E-3  -.9821   
  11.47     0.1590E-2  -1.030     0.3572E-3  -.9820   
  11.49     0.1559E-2  -1.029     0.3607E-3  -.9819   
  11.51     0.1529E-2  -1.029     0.3643E-3  -.9818   
  11.53     0.1500E-2  -1.029     0.3678E-3  -.9818   
  11.55     0.1472E-2  -1.028     0.3715E-3  -.9817   
  11.57     0.1445E-2  -1.028     0.3752E-3  -.9816   
  11.59     0.1418E-2  -1.028     0.3789E-3  -.9815   
  11.61     0.1392E-2  -1.027     0.3827E-3  -.9815   
  11.63     0.1367E-2  -1.027     0.3866E-3  -.9814   
  11.65     0.1342E-2  -1.027     0.3905E-3  -.9813   
  11.67     0.1319E-2  -1.027     0.3945E-3  -.9812   
  11.69     0.1295E-2  -1.026     0.3985E-3  -.9812   
  11.71     0.1273E-2  -1.026     0.4026E-3  -.9811   
  11.73     0.1251E-2  -1.026     0.4067E-3  -.9810   
  11.75     0.1229E-2  -1.026     0.4109E-3  -.9809   
  11.77     0.1208E-2  -1.025     0.4152E-3  -.9808   
  11.79     0.1188E-2  -1.025     0.4196E-3  -.9807   
  11.81     0.1168E-2  -1.025     0.4240E-3  -.9807   
  11.83     0.1148E-2  -1.025     0.4285E-3  -.9806   
  11.85     0.1129E-2  -1.024     0.4330E-3  -.9805   
  11.87     0.1111E-2  -1.024     0.4376E-3  -.9804   
  11.89     0.1093E-2  -1.024     0.4423E-3  -.9803   
  11.91     0.1075E-2  -1.024     0.4471E-3  -.9802   
  11.93     0.1058E-2  -1.024     0.4519E-3  -.9801   
  11.95     0.1041E-2  -1.023     0.4569E-3  -.9800   
  11.97     0.1025E-2  -1.023     0.4619E-3  -.9800   
  11.99     0.1009E-2  -1.023     0.4670E-3  -.9799   
  12.01     0.9935E-3  -1.023     0.4721E-3  -.9798   
  12.03     0.9782E-3  -1.023     0.4774E-3  -.9797   
  12.05     0.9633E-3  -1.022     0.4827E-3  -.9796   
  12.07     0.9488E-3  -1.022     0.4881E-3  -.9795   
  12.09     0.9345E-3  -1.022     0.4936E-3  -.9794   
  12.11     0.9206E-3  -1.022     0.4993E-3  -.9793   
  12.13     0.9070E-3  -1.022     0.5050E-3  -.9792   
  12.15     0.8937E-3  -1.021     0.5108E-3  -.9791   
  12.17     0.8808E-3  -1.021     0.5167E-3  -.9790   
  12.19     0.8680E-3  -1.021     0.5227E-3  -.9789   
  12.21     0.8556E-3  -1.021     0.5287E-3  -.9788   
  12.23     0.8435E-3  -1.021     0.5350E-3  -.9787   
  12.25     0.8316E-3  -1.021     0.5413E-3  -.9786   
  12.27     0.8199E-3  -1.020     0.5477E-3  -.9785   
  12.29     0.8086E-3  -1.020     0.5542E-3  -.9783   
  12.31     0.7974E-3  -1.020     0.5609E-3  -.9782   
  12.33     0.7865E-3  -1.020     0.5677E-3  -.9781   
  12.35     0.7759E-3  -1.020     0.5746E-3  -.9780   
  12.37     0.7654E-3  -1.020     0.5816E-3  -.9779   
  12.39     0.7552E-3  -1.020     0.5887E-3  -.9778   
  12.41     0.7452E-3  -1.019     0.5960E-3  -.9777   
  12.43     0.7355E-3  -1.019     0.6034E-3  -.9775   
  12.45     0.7260E-3  -1.019     0.6110E-3  -.9774   
  12.47     0.7166E-3  -1.019     0.6187E-3  -.9773   
  12.49     0.7075E-3  -1.019     0.6265E-3  -.9772   
  12.51     0.6986E-3  -1.019     0.6345E-3  -.9770   
  12.53     0.6900E-3  -1.019     0.6426E-3  -.9769   
  12.55     0.6815E-3  -1.018     0.6509E-3  -.9768   
  12.57     0.6733E-3  -1.018     0.6594E-3  -.9767   
  12.59     0.6653E-3  -1.018     0.6680E-3  -.9765   
  12.61     0.6576E-3  -1.018     0.6768E-3  -.9764   
  12.63     0.6502E-3  -1.018     0.6857E-3  -.9763   
  12.65     0.6431E-3  -1.018     0.6948E-3  -.9761   
  12.67     0.6364E-3  -1.018     0.7041E-3  -.9760   
  12.69     0.6300E-3  -1.017     0.7137E-3  -.9758   
  12.71     0.6242E-3  -1.017     0.7233E-3  -.9757   
  12.73     0.6190E-3  -1.017     0.7332E-3  -.9755   
  12.75     0.6144E-3  -1.017     0.7433E-3  -.9754   
  12.77     0.6106E-3  -1.017     0.7536E-3  -.9753   
  12.79     0.6076E-3  -1.017     0.7641E-3  -.9751   
  12.81     0.6049E-3  -1.017     0.7749E-3  -.9749   
  12.83     0.6020E-3  -1.017     0.7858E-3  -.9748   
  12.85     0.5976E-3  -1.017     0.7970E-3  -.9746   
  12.87     0.5909E-3  -1.016     0.8084E-3  -.9745   
  12.89     0.5820E-3  -1.016     0.8201E-3  -.9743   
  12.91     0.5719E-3  -1.016     0.8320E-3  -.9741   
  12.93     0.5615E-3  -1.016     0.8442E-3  -.9740   
  12.95     0.5517E-3  -1.016     0.8567E-3  -.9738   
  12.97     0.5425E-3  -1.016     0.8694E-3  -.9736   
  12.99     0.5341E-3  -1.016     0.8824E-3  -.9735   
  13.01     0.5264E-3  -1.016     0.8957E-3  -.9733   
  13.03     0.5191E-3  -1.016     0.9093E-3  -.9731   
  13.05     0.5123E-3  -1.015     0.9232E-3  -.9729   
  13.07     0.5059E-3  -1.015     0.9375E-3  -.9727   
  13.09     0.4998E-3  -1.015     0.9520E-3  -.9725   
  13.11     0.4939E-3  -1.015     0.9669E-3  -.9724   
  13.13     0.4882E-3  -1.015     0.9822E-3  -.9722   
  13.15     0.4828E-3  -1.015     0.9978E-3  -.9720   
  13.17     0.4774E-3  -1.015     0.1014E-2  -.9718   
  13.19     0.4723E-3  -1.015     0.1030E-2  -.9716   
  13.21     0.4673E-3  -1.015     0.1047E-2  -.9714   
  13.23     0.4624E-3  -1.015     0.1064E-2  -.9711   
  13.25     0.4576E-3  -1.015     0.1082E-2  -.9709   
  13.27     0.4530E-3  -1.014     0.1100E-2  -.9707   
  13.29     0.4484E-3  -1.014     0.1118E-2  -.9705   
  13.31     0.4440E-3  -1.014     0.1137E-2  -.9703   
  13.33     0.4396E-3  -1.014     0.1157E-2  -.9700   
  13.35     0.4354E-3  -1.014     0.1177E-2  -.9698   
  13.37     0.4312E-3  -1.014     0.1197E-2  -.9696   
  13.39     0.4272E-3  -1.014     0.1218E-2  -.9693   
  13.41     0.4232E-3  -1.014     0.1240E-2  -.9691   
  13.43     0.4193E-3  -1.014     0.1262E-2  -.9688   
  13.45     0.4156E-3  -1.014     0.1285E-2  -.9686   
  13.47     0.4119E-3  -1.014     0.1308E-2  -.9683   
  13.49     0.4083E-3  -1.013     0.1332E-2  -.9681   
  13.51     0.4048E-3  -1.013     0.1357E-2  -.9678   
  13.53     0.4013E-3  -1.013     0.1382E-2  -.9675   
  13.55     0.3980E-3  -1.013     0.1408E-2  -.9673   
  13.57     0.3948E-3  -1.013     0.1435E-2  -.9670   
  13.59     0.3916E-3  -1.013     0.1463E-2  -.9667   
  13.61     0.3885E-3  -1.013     0.1491E-2  -.9664   
  13.63     0.3856E-3  -1.013     0.1520E-2  -.9661   
  13.65     0.3827E-3  -1.013     0.1550E-2  -.9658   
  13.67     0.3800E-3  -1.013     0.1581E-2  -.9655   
  13.69     0.3773E-3  -1.013     0.1613E-2  -.9652   
  13.71     0.3748E-3  -1.013     0.1646E-2  -.9648   
  13.73     0.3723E-3  -1.013     0.1680E-2  -.9645   
  13.75     0.3700E-3  -1.012     0.1715E-2  -.9642   
  13.77     0.3678E-3  -1.012     0.1751E-2  -.9638   
  13.79     0.3657E-3  -1.012     0.1788E-2  -.9635   
  13.81     0.3638E-3  -1.012     0.1827E-2  -.9631   
  13.83     0.3620E-3  -1.012     0.1866E-2  -.9627   
  13.85     0.3604E-3  -1.012     0.1907E-2  -.9624   
  13.87     0.3590E-3  -1.012     0.1950E-2  -.9620   
  13.89     0.3577E-3  -1.012     0.1993E-2  -.9616   
  13.91     0.3566E-3  -1.012     0.2039E-2  -.9612   
  13.93     0.3558E-3  -1.012     0.2086E-2  -.9608   
  13.95     0.3552E-3  -1.012     0.2134E-2  -.9604   
  13.97     0.3549E-3  -1.012     0.2184E-2  -.9599   
  13.99     0.3548E-3  -1.012     0.2236E-2  -.9595   
  14.01     0.3551E-3  -1.012     0.2290E-2  -.9590   
  14.03     0.3558E-3  -1.011     0.2346E-2  -.9586   
  14.05     0.3569E-3  -1.011     0.2403E-2  -.9581   
  14.07     0.3585E-3  -1.011     0.2463E-2  -.9576   
  14.09     0.3606E-3  -1.011     0.2526E-2  -.9571   
  14.11     0.3634E-3  -1.011     0.2590E-2  -.9566   
  14.13     0.3670E-3  -1.011     0.2658E-2  -.9561   
  14.15     0.3714E-3  -1.011     0.2727E-2  -.9556   
  14.17     0.3769E-3  -1.011     0.2800E-2  -.9550   
  14.19     0.3836E-3  -1.011     0.2876E-2  -.9545   
  14.21     0.3918E-3  -1.011     0.2954E-2  -.9539   
  14.23     0.4018E-3  -1.011     0.3036E-2  -.9533   
  14.25     0.4140E-3  -1.011     0.3122E-2  -.9527   
  14.27     0.4289E-3  -1.011     0.3211E-2  -.9521   
  14.29     0.4473E-3  -1.011     0.3304E-2  -.9514   
  14.31     0.4699E-3  -1.010     0.3401E-2  -.9508   
  14.33     0.4978E-3  -1.010     0.3502E-2  -.9501   
  14.35     0.5328E-3  -1.010     0.3608E-2  -.9494   
  14.37     0.5767E-3  -1.010     0.3719E-2  -.9486   
  14.39     0.6322E-3  -1.010     0.3834E-2  -.9479   
  14.41     0.7028E-3  -1.010     0.3956E-2  -.9471   
  14.43     0.7926E-3  -1.010     0.4083E-2  -.9463   
  14.45     0.9065E-3  -1.010     0.4217E-2  -.9455   
  14.47     0.1048E-2  -1.010     0.4357E-2  -.9447   
  14.49     0.1216E-2  -1.010     0.4505E-2  -.9438   
  14.51     0.1399E-2  -1.010     0.4660E-2  -.9429   
  14.53     0.1565E-2  -1.010     0.4823E-2  -.9420   
  14.55     0.1668E-2  -1.010     0.4994E-2  -.9410   
  14.57     0.1666E-2  -1.010     0.5176E-2  -.9400   
  14.59     0.1561E-2  -1.011     0.5367E-2  -.9390   
  14.61     0.1392E-2  -1.011     0.5569E-2  -.9379   
  14.63     0.1206E-2  -1.011     0.5782E-2  -.9368   
  14.65     0.1035E-2  -1.011     0.6008E-2  -.9356   
  14.67     0.8911E-3  -1.011     0.6248E-2  -.9344   
  14.69     0.7743E-3  -1.011     0.6502E-2  -.9332   
  14.71     0.6809E-3  -1.011     0.6772E-2  -.9319   
  14.73     0.6062E-3  -1.011     0.7059E-2  -.9305   
  14.75     0.5461E-3  -1.010     0.7365E-2  -.9291   
  14.77     0.4974E-3  -1.010     0.7691E-2  -.9276   
  14.79     0.4577E-3  -1.010     0.8039E-2  -.9261   
  14.81     0.4250E-3  -1.010     0.8411E-2  -.9245   
  14.83     0.3979E-3  -1.010     0.8810E-2  -.9228   
  14.85     0.3752E-3  -1.010     0.9238E-2  -.9211   
  14.87     0.3560E-3  -1.010     0.9697E-2  -.9192   
  14.89     0.3396E-3  -1.010     0.1019E-1  -.9173   
  14.91     0.3254E-3  -1.010     0.1072E-1  -.9153   
  14.93     0.3131E-3  -1.010     0.1130E-1  -.9132   
  14.95     0.3023E-3  -1.010     0.1192E-1  -.9109   
  14.97     0.2928E-3  -1.010     0.1260E-1  -.9086   
  14.99     0.2843E-3  -1.010     0.1333E-1  -.9061   
  15.02     0.2768E-3  -1.010     0.1413E-1  -.9035   
  15.04     0.2700E-3  -1.010     0.1501E-1  -.9007   
  15.06     0.2639E-3  -1.009     0.1597E-1  -.8977   
  15.08     0.2583E-3  -1.009     0.1702E-1  -.8946   
  15.10     0.2532E-3  -1.009     0.1817E-1  -.8913   
  15.12     0.2485E-3  -1.009     0.1945E-1  -.8877   
  15.14     0.2443E-3  -1.009     0.2087E-1  -.8840   
  15.16     0.2403E-3  -1.009     0.2245E-1  -.8799   
  15.18     0.2367E-3  -1.009     0.2421E-1  -.8756   
  15.20     0.2334E-3  -1.009     0.2618E-1  -.8710   
  15.22     0.2303E-3  -1.009     0.2840E-1  -.8660   
  15.24     0.2274E-3  -1.009     0.3091E-1  -.8606   
  15.26     0.2248E-3  -1.009     0.3376E-1  -.8548   
  15.28     0.2224E-3  -1.009     0.3701E-1  -.8486   
  15.30     0.2202E-3  -1.009     0.4075E-1  -.8417   
  15.32     0.2182E-3  -1.009     0.4507E-1  -.8343   
  15.34     0.2164E-3  -1.009     0.5009E-1  -.8263   
  15.36     0.2148E-3  -1.009     0.5598E-1  -.8175   
  15.38     0.2135E-3  -1.009     0.6292E-1  -.8078   
  15.40     0.2123E-3  -1.009     0.7118E-1  -.7973   
  15.42     0.2115E-3  -1.009     0.8109E-1  -.7858   
  15.44     0.2109E-3  -1.009     0.9310E-1  -.7733   
  15.46     0.2106E-3  -1.009     0.1078     -.7597   
  15.48     0.2108E-3  -1.009     0.1260     -.7451   
  15.50     0.2113E-3  -1.008     0.1486     -.7299   
  15.52     0.2125E-3  -1.008     0.1772     -.7145   
  15.54     0.2142E-3  -1.008     0.2133     -.7002   
  15.56     0.2169E-3  -1.008     0.2591     -.6888   
  15.58     0.2205E-3  -1.008     0.3162     -.6838   
  15.60     0.2256E-3  -1.008     0.3850     -.6914   
  15.62     0.2323E-3  -1.008     0.4623     -.7203   
  15.64     0.2413E-3  -1.008     0.5397     -.7806   
  15.66     0.2532E-3  -1.008     0.6003     -.8762   
  15.68     0.2685E-3  -1.008     0.6238     -.9967   
  15.70     0.2877E-3  -1.008     0.6000     -1.117   
  15.72     0.3106E-3  -1.008     0.5382     -1.212   
  15.74     0.3349E-3  -1.008     0.4593     -1.273   
  15.76     0.3558E-3  -1.008     0.3810     -1.302   
  15.78     0.3666E-3  -1.008     0.3126     -1.309   
  15.80     0.3626E-3  -1.008     0.2563     -1.304   
  15.82     0.3449E-3  -1.008     0.2113     -1.292   
  15.84     0.3195E-3  -1.008     0.1758     -1.278   
  15.86     0.2928E-3  -1.008     0.1476     -1.262   
  15.88     0.2685E-3  -1.008     0.1252     -1.247   
  15.90     0.2479E-3  -1.008     0.1072     -1.232   
  15.92     0.2312E-3  -1.008     0.9266E-1  -1.218   
  15.94     0.2177E-3  -1.008     0.8075E-1  -1.206   
  15.96     0.2067E-3  -1.008     0.7091E-1  -1.194   
  15.98     0.1978E-3  -1.008     0.6270E-1  -1.184   
  16.00     0.1905E-3  -1.008     0.5580E-1  -1.174   
  16.02     0.1844E-3  -1.008     0.4996E-1  -1.165   
  16.04     0.1793E-3  -1.008     0.4497E-1  -1.157   
  16.06     0.1749E-3  -1.008     0.4067E-1  -1.150   
  16.08     0.1711E-3  -1.008     0.3696E-1  -1.143   
  16.10     0.1677E-3  -1.008     0.3372E-1  -1.137   
  16.12     0.1648E-3  -1.008     0.3089E-1  -1.131   
  16.14     0.1621E-3  -1.008     0.2840E-1  -1.126   
  16.16     0.1597E-3  -1.008     0.2619E-1  -1.121   
  16.18     0.1576E-3  -1.007     0.2423E-1  -1.116   
  16.20     0.1556E-3  -1.007     0.2248E-1  -1.112   
  16.22     0.1537E-3  -1.007     0.2092E-1  -1.108   
  16.24     0.1520E-3  -1.007     0.1951E-1  -1.104   
  16.26     0.1505E-3  -1.007     0.1824E-1  -1.100   
  16.28     0.1490E-3  -1.007     0.1710E-1  -1.097   
  16.30     0.1476E-3  -1.007     0.1605E-1  -1.094   
  16.32     0.1464E-3  -1.007     0.1510E-1  -1.091   
  16.34     0.1452E-3  -1.007     0.1424E-1  -1.088   
  16.36     0.1441E-3  -1.007     0.1345E-1  -1.085   
  16.38     0.1431E-3  -1.007     0.1272E-1  -1.083   
  16.40     0.1423E-3  -1.007     0.1205E-1  -1.081   
  16.42     0.1415E-3  -1.007     0.1144E-1  -1.078   
  16.44     0.1408E-3  -1.007     0.1087E-1  -1.076   
  16.46     0.1403E-3  -1.007     0.1035E-1  -1.074   
  16.48     0.1397E-3  -1.007     0.9865E-2  -1.072   
  16.50     0.1391E-3  -1.007     0.9415E-2  -1.070   
  16.52     0.1383E-3  -1.007     0.8997E-2  -1.069   
  16.54     0.1372E-3  -1.007     0.8609E-2  -1.067   
  16.56     0.1361E-3  -1.007     0.8247E-2  -1.065   
  16.58     0.1349E-3  -1.007     0.7910E-2  -1.064   
  16.60     0.1338E-3  -1.007     0.7596E-2  -1.062   
  16.62     0.1328E-3  -1.007     0.7302E-2  -1.061   
  16.64     0.1318E-3  -1.007     0.7028E-2  -1.059   
  16.66     0.1310E-3  -1.007     0.6772E-2  -1.058   
  16.68     0.1303E-3  -1.007     0.6532E-2  -1.057   
  16.70     0.1296E-3  -1.007     0.6308E-2  -1.055   
  16.72     0.1291E-3  -1.007     0.6098E-2  -1.054   
  16.74     0.1286E-3  -1.007     0.5901E-2  -1.053   
  16.76     0.1282E-3  -1.007     0.5718E-2  -1.052   
  16.78     0.1279E-3  -1.007     0.5546E-2  -1.051   
  16.80     0.1277E-3  -1.007     0.5386E-2  -1.050   
  16.82     0.1275E-3  -1.007     0.5237E-2  -1.049   
  16.84     0.1274E-3  -1.007     0.5098E-2  -1.048   
  16.86     0.1272E-3  -1.007     0.4970E-2  -1.047   
  16.88     0.1270E-3  -1.007     0.4851E-2  -1.046   
  16.90     0.1269E-3  -1.007     0.4742E-2  -1.045   
  16.92     0.1268E-3  -1.006     0.4643E-2  -1.044   
  16.94     0.1268E-3  -1.006     0.4553E-2  -1.043   
  16.96     0.1270E-3  -1.006     0.4473E-2  -1.042   
  16.98     0.1274E-3  -1.006     0.4402E-2  -1.041   
  17.00     0.1280E-3  -1.006     0.4342E-2  -1.040   
  17.02     0.1289E-3  -1.006     0.4292E-2  -1.039   
  17.04     0.1300E-3  -1.006     0.4253E-2  -1.039   
  17.06     0.1316E-3  -1.006     0.4226E-2  -1.038   
  17.08     0.1335E-3  -1.006     0.4213E-2  -1.037   
  17.10     0.1359E-3  -1.006     0.4214E-2  -1.036   
  17.12     0.1390E-3  -1.006     0.4231E-2  -1.035   
  17.14     0.1430E-3  -1.006     0.4266E-2  -1.034   
  17.16     0.1479E-3  -1.006     0.4323E-2  -1.034   
  17.18     0.1543E-3  -1.006     0.4405E-2  -1.033   
  17.20     0.1623E-3  -1.006     0.4518E-2  -1.032   
  17.22     0.1726E-3  -1.006     0.4666E-2  -1.031   
  17.24     0.1858E-3  -1.006     0.4859E-2  -1.030   
  17.26     0.2027E-3  -1.006     0.5107E-2  -1.029   
  17.28     0.2238E-3  -1.006     0.5425E-2  -1.029   
  17.30     0.2495E-3  -1.006     0.5830E-2  -1.028   
  17.32     0.2783E-3  -1.006     0.6349E-2  -1.027   
  17.34     0.3062E-3  -1.006     0.7013E-2  -1.026   
  17.36     0.3261E-3  -1.006     0.7867E-2  -1.025   
  17.38     0.3307E-3  -1.006     0.8961E-2  -1.024   
  17.40     0.3178E-3  -1.006     0.1035E-1  -1.023   
  17.42     0.2923E-3  -1.006     0.1209E-1  -1.023   
  17.44     0.2622E-3  -1.006     0.1415E-1  -1.023   
  17.46     0.2333E-3  -1.006     0.1639E-1  -1.024   
  17.48     0.2084E-3  -1.006     0.1840E-1  -1.026   
  17.50     0.1880E-3  -1.006     0.1960E-1  -1.028   
  17.52     0.1717E-3  -1.006     0.1952E-1  -1.031   
  17.54     0.1587E-3  -1.006     0.1818E-1  -1.034   
  17.56     0.1483E-3  -1.006     0.1607E-1  -1.036   
  17.58     0.1399E-3  -1.006     0.1378E-1  -1.036   
  17.60     0.1331E-3  -1.006     0.1168E-1  -1.037   
  17.62     0.1274E-3  -1.006     0.9910E-2  -1.036   
  17.64     0.1227E-3  -1.006     0.8480E-2  -1.036   
  17.66     0.1187E-3  -1.006     0.7345E-2  -1.035   
  17.68     0.1153E-3  -1.006     0.6447E-2  -1.034   
  17.70     0.1124E-3  -1.006     0.5734E-2  -1.033   
  17.72     0.1099E-3  -1.006     0.5165E-2  -1.032   
  17.74     0.1076E-3  -1.006     0.4707E-2  -1.032   
  17.76     0.1056E-3  -1.006     0.4336E-2  -1.031   
  17.78     0.1039E-3  -1.006     0.4033E-2  -1.030   
  17.80     0.1023E-3  -1.006     0.3785E-2  -1.029   
  17.82     0.1008E-3  -1.006     0.3582E-2  -1.029   
  17.84     0.9952E-4  -1.006     0.3415E-2  -1.028   
  17.86     0.9832E-4  -1.006     0.3279E-2  -1.028   
  17.88     0.9722E-4  -1.006     0.3170E-2  -1.027   
  17.90     0.9620E-4  -1.006     0.3084E-2  -1.026   
  17.92     0.9526E-4  -1.006     0.3018E-2  -1.026   
  17.94     0.9439E-4  -1.006     0.2972E-2  -1.025   
  17.96     0.9359E-4  -1.006     0.2944E-2  -1.025   
  17.98     0.9284E-4  -1.006     0.2934E-2  -1.024   
  18.00     0.9216E-4  -1.006     0.2943E-2  -1.024   
  18.02     0.9153E-4  -1.005     0.2970E-2  -1.023   
  18.04     0.9095E-4  -1.005     0.3017E-2  -1.022   
  18.06     0.9044E-4  -1.005     0.3086E-2  -1.022   
  18.08     0.8998E-4  -1.005     0.3181E-2  -1.021   
  18.10     0.8958E-4  -1.005     0.3305E-2  -1.021   
  18.12     0.8924E-4  -1.005     0.3463E-2  -1.020   
  18.14     0.8893E-4  -1.005     0.3662E-2  -1.019   
  18.16     0.8864E-4  -1.005     0.3911E-2  -1.019   
  18.18     0.8836E-4  -1.005     0.4223E-2  -1.018   
  18.20     0.8811E-4  -1.005     0.4613E-2  -1.017   
  18.22     0.8792E-4  -1.005     0.5103E-2  -1.017   
  18.24     0.8780E-4  -1.005     0.5720E-2  -1.016   
  18.26     0.8772E-4  -1.005     0.6504E-2  -1.015   
  18.28     0.8761E-4  -1.005     0.7501E-2  -1.015   
  18.30     0.8741E-4  -1.005     0.8771E-2  -1.014   
  18.32     0.8711E-4  -1.005     0.1038E-1  -1.013   
  18.34     0.8677E-4  -1.005     0.1237E-1  -1.013   
  18.36     0.8648E-4  -1.005     0.1473E-1  -1.014   
  18.38     0.8629E-4  -1.005     0.1727E-1  -1.015   
  18.40     0.8626E-4  -1.005     0.1953E-1  -1.017   
  18.42     0.8639E-4  -1.005     0.2085E-1  -1.020   
  18.44     0.8673E-4  -1.005     0.2071E-1  -1.024   
  18.46     0.8729E-4  -1.005     0.1916E-1  -1.027   
  18.48     0.8812E-4  -1.005     0.1678E-1  -1.029   
  18.50     0.8928E-4  -1.005     0.1422E-1  -1.030   
  18.52     0.9085E-4  -1.005     0.1189E-1  -1.031   
  18.54     0.9293E-4  -1.005     0.9927E-2  -1.031   
  18.56     0.9568E-4  -1.005     0.8346E-2  -1.030   
  18.58     0.9929E-4  -1.005     0.7092E-2  -1.029   
  18.60     0.1040E-3  -1.005     0.6101E-2  -1.029   
  18.62     0.1100E-3  -1.005     0.5315E-2  -1.028   
  18.64     0.1175E-3  -1.005     0.4688E-2  -1.027   
  18.66     0.1263E-3  -1.005     0.4183E-2  -1.027   
  18.68     0.1354E-3  -1.005     0.3774E-2  -1.026   
  18.70     0.1431E-3  -1.005     0.3440E-2  -1.025   
  18.72     0.1468E-3  -1.005     0.3165E-2  -1.025   
  18.74     0.1447E-3  -1.005     0.2939E-2  -1.024   
  18.76     0.1377E-3  -1.005     0.2752E-2  -1.024   
  18.78     0.1281E-3  -1.005     0.2598E-2  -1.023   
  18.80     0.1183E-3  -1.005     0.2472E-2  -1.023   
  18.82     0.1094E-3  -1.005     0.2370E-2  -1.023   
  18.84     0.1020E-3  -1.005     0.2290E-2  -1.022   
  18.86     0.9595E-4  -1.005     0.2230E-2  -1.022   
  18.88     0.9112E-4  -1.005     0.2189E-2  -1.021   
  18.90     0.8722E-4  -1.005     0.2167E-2  -1.021   
  18.92     0.8406E-4  -1.005     0.2165E-2  -1.021   
  18.94     0.8146E-4  -1.005     0.2182E-2  -1.020   
  18.96     0.7930E-4  -1.005     0.2223E-2  -1.020   
  18.98     0.7748E-4  -1.005     0.2291E-2  -1.019   
  19.00     0.7592E-4  -1.005     0.2390E-2  -1.019   
  19.02     0.7458E-4  -1.005     0.2527E-2  -1.019   
  19.04     0.7340E-4  -1.005     0.2712E-2  -1.018   
  19.06     0.7236E-4  -1.005     0.2957E-2  -1.018   
  19.08     0.7143E-4  -1.005     0.3280E-2  -1.017   
  19.10     0.7059E-4  -1.005     0.3701E-2  -1.017   
  19.12     0.6983E-4  -1.005     0.4241E-2  -1.017   
  19.14     0.6913E-4  -1.005     0.4920E-2  -1.017   
  19.16     0.6849E-4  -1.005     0.5729E-2  -1.017   
  19.18     0.6790E-4  -1.005     0.6608E-2  -1.017   
  19.20     0.6734E-4  -1.005     0.7399E-2  -1.018   
  19.22     0.6683E-4  -1.005     0.7868E-2  -1.019   
  19.24     0.6636E-4  -1.005     0.7827E-2  -1.020   
  19.26     0.6592E-4  -1.005     0.7283E-2  -1.021   
  19.28     0.6551E-4  -1.005     0.6438E-2  -1.022   
  19.30     0.6513E-4  -1.005     0.5521E-2  -1.022   
  19.32     0.6479E-4  -1.005     0.4680E-2  -1.022   
  19.34     0.6447E-4  -1.005     0.3971E-2  -1.022   
  19.36     0.6416E-4  -1.005     0.3398E-2  -1.022   
  19.38     0.6383E-4  -1.005     0.2942E-2  -1.021   
  19.40     0.6347E-4  -1.004     0.2580E-2  -1.021   
  19.42     0.6307E-4  -1.004     0.2292E-2  -1.021   
  19.44     0.6265E-4  -1.004     0.2061E-2  -1.020   
  19.46     0.6221E-4  -1.004     0.1874E-2  -1.020   
  19.48     0.6177E-4  -1.004     0.1721E-2  -1.020   
  19.50     0.6135E-4  -1.004     0.1596E-2  -1.020   
  19.52     0.6095E-4  -1.004     0.1492E-2  -1.019   
  19.54     0.6057E-4  -1.004     0.1406E-2  -1.019   
  19.56     0.6021E-4  -1.004     0.1334E-2  -1.019   
  19.58     0.5986E-4  -1.004     0.1274E-2  -1.019   
  19.60     0.5953E-4  -1.004     0.1224E-2  -1.018   
  19.62     0.5920E-4  -1.004     0.1183E-2  -1.018   
  19.64     0.5889E-4  -1.004     0.1150E-2  -1.018   
  19.66     0.5858E-4  -1.004     0.1125E-2  -1.018   
  19.68     0.5828E-4  -1.004     0.1106E-2  -1.018   
  19.70     0.5798E-4  -1.004     0.1094E-2  -1.017   
  19.72     0.5769E-4  -1.004     0.1089E-2  -1.017   
  19.74     0.5741E-4  -1.004     0.1091E-2  -1.017   
  19.76     0.5712E-4  -1.004     0.1101E-2  -1.017   
  19.78     0.5685E-4  -1.004     0.1120E-2  -1.017   
  19.80     0.5657E-4  -1.004     0.1149E-2  -1.017   
  19.82     0.5630E-4  -1.004     0.1191E-2  -1.017   
  19.84     0.5604E-4  -1.004     0.1248E-2  -1.016   
  19.86     0.5577E-4  -1.004     0.1325E-2  -1.016   
  19.88     0.5551E-4  -1.004     0.1426E-2  -1.016   
  19.90     0.5525E-4  -1.004     0.1558E-2  -1.016   
  19.92     0.5499E-4  -1.004     0.1731E-2  -1.016   
  19.94     0.5473E-4  -1.004     0.1953E-2  -1.016   
  19.96     0.5445E-4  -1.004     0.2234E-2  -1.017   
  19.98     0.5373E-4  -1.004     0.2557E-2  -1.018   
  20.00     0.5986E-6  -1.004     0.2569E-4  -1.018   
# 
# 04/03/2015 at 14:27 YAMBO @ anomaly [start]
# 04/03/2015 at 14:28                 [end]
#  
# Timing   [Min/Max/Average]: 04s/04s/04s
#
# .-Input file : Inputs/06_BSE
# | optics                       # [R OPT] Optics
# | bse                          # [R BSE] Bethe Salpeter Equation.
# | bsk                          # [R BSK] Bethe Salpeter Equation kernel
# | bss                          # [R BSS] Bethe Salpeter Equation solver
# | FFTGvecs=  9939        RL    # [FFT] Plane-waves
# | BS_CPU= ""                   # [PARALLEL] CPUs for each role
# | BS_ROLEs= ""                 # [PARALLEL] CPUs roles (k,eh,t)
# | BS_nCPU_invert= 1            # [PARALLEL] CPUs for matrix inversion
# | BS_nCPU_diago= 1             # [PARALLEL] CPUs for matrix diagonalization
# | X_Threads=0                  # [OPENMP/X] Number of threads for response functions
# | DIP_Threads=0                # [OPENMP/X] Number of threads for dipoles
# | NonPDirs= "XYZ"              # [X/BSS] Non periodic chartesian directions (X,Y,Z,XY...)
# | BSEmod= "causal"             # [BSE] resonant/causal/x_coupling/xc_coupling
# | BSKmod= "SEX"                # [BSE] IP/Hartree/HF/ALDA/SEX
# | BSSmod= "d"                  # [BSS] (h)aydock/(d)iagonalization/(i)nversion/(t)ddft`
# | BSENGexx=  437         RL    # [BSK] Exchange components
# | BSENGBlk=  619         RL    # [BSK] Screened interaction block size
# | % KfnQP_E
# |  7.600000 | 1.000000 | 1.000000 |        # [EXTQP BSK BSS] E parameters  (c/v) eV|adim|adim
# | %
# | % BEnRange
# |   0.00000 | 20.00000 | eV    # [BSS] Energy range
# | %
# | % BDmRange
# |   0.10000 |  0.10000 | eV    # [BSS] Damping range
# | %
# | BEnSteps= 1000               # [BSS] Energy steps
# | % BLongDir
# | 0.1000E-4 | 0.000    | 0.000    |        # [BSS] [cc] Electric Field
# | %
# | % BSEBands
# |    1 |  70 |                 # [BSK] Bands range
# | %
